FP1     FP2     F3      F4      C3      C4      P3      P4      O1      O2      F7      F8      T7      T8      P7      P8      Fz      Cz      Pz      A1      A2      EKG     ATM     EO1     EO2     EM1     EM2     PHO    
 -7.4546 22.8428 6.28159 15.6212 7.98755 22.4034 -7.7884 32.6146 35.6545 24.8028 9.80923 -12.845 36.3053 27.7184 45.0822 55.7717 19.6801 29.8979 -11.775 38.8505 35.2711 2.35162  14.117 13.6331 13.7021 12.9109 13.7034 9.37573
 -11.106 21.4828 6.89088 15.0562 10.1091 22.5443 -7.1574 34.1495 34.8749 29.5059 8.43219  -13.46 34.8409 28.3306 44.6164 58.3987 19.6274 31.2912  -12.35 44.9804 61.4472 1.89293  14.292 13.7184 13.7942 13.0194 13.7628 9.44731
   -14.4 20.0907 7.94856 14.1624 13.0019 21.6666 -6.1377  34.689 34.1256 33.6971 7.90525 -14.323 33.3383  28.533 44.8649 59.7361 19.6515 32.3081 -13.006 46.2484 79.1628 1.22726 14.4623 13.7995 13.8982 13.1116 13.8239 9.51796
 -17.238 18.7206 9.36857 13.0093 16.5282  19.917 -4.6946 34.2955 33.6028  37.524 8.16295 -15.464 31.8679 28.4027 45.9601 59.9015 19.7765  32.994  -13.58 43.3831 88.4718 0.30236 14.6182 13.8759 14.0155 13.1927 13.8914  9.5877
 -19.554 17.4084 11.0604 11.6674 20.5128 17.4778  -2.776 33.1315 33.5562 41.1388 9.08426 -16.899 30.5294 28.0236 47.9965 59.0853 20.0284 33.4759 -13.886 36.7796 89.8117 -0.8589 14.7537 13.9521 14.1399 13.2692 13.9652 9.65654
 -21.287 16.1744 12.9292 10.2056 24.7469 14.5525 -0.3566 31.4143 34.2003  44.608 10.5081 -18.616  29.461 27.5073 50.9711 57.4717 20.4357 33.8947 -13.745 25.9233 84.1812 -2.1964 14.8628 14.0321 14.2617 13.3445 14.0421 9.72449
 -22.373 15.0238   14.88 8.69004 29.0058 11.3802 2.52401 29.3846 35.6461 47.9018 12.2459 -20.588 28.8213  26.999 54.7539 55.2373  20.997 34.3079 -13.051 11.6206 74.0396 -3.6505  14.941 14.1164 14.3756 13.4191 14.1184 9.79156
 -22.764 13.9461 16.8236 7.18228 33.0705 8.23204 5.76304 27.2826 37.8785 50.9327 14.0944 -22.765 28.7513 26.6683 59.1174 52.5745 21.6532 34.6406 -11.837 -2.3606 63.2318 -5.1575 14.9896 14.2057 14.4814 13.4936 14.1927 9.85777
  -22.45 12.9267 18.6782  5.7379 36.7592 5.36336  9.2254 25.3143 40.7618 53.5796 15.8624 -25.068 29.3145 26.6524 63.7875 49.6735 22.2934 34.7192 -10.253  -11.55 55.3173 -6.6238 15.0218 14.3037 14.5779 13.5706  14.266 9.92312
 -21.462 11.9783 20.3723  4.4109 39.9753 2.96712 12.7892 23.6318 44.0735   55.69 17.4123 -27.395 30.4608 27.0048 68.4832 46.6829 22.7861 34.3605 -8.4851 -14.277  51.849  -7.931 15.0607 14.4125 14.6606 13.6506  14.341 9.98762
 -19.865 11.1605 21.8466 3.26052 42.7397   1.171 16.3863 22.3381 47.5677 57.1016 18.6789 -29.639 32.0599 27.7285 72.9601 43.6932 23.0261  33.475 -6.6662 -11.673  52.239 -8.9768 15.1279 14.5286 14.7264 13.7308 14.4213 10.0513
 -17.777 10.5408 23.0436 2.35765 45.1648 0.05384 20.0146 21.5048 51.0496 57.7135 19.6385 -31.705 33.9456  28.812 77.0556 40.7671 22.9617 32.1153 -4.8336 -4.1366 55.4722 -9.7181 15.2355 14.6435 14.7816  13.808 14.5084 10.1141
 -15.397 10.1494    23.9 1.78037 47.3845 -0.3479 23.7089 21.1894 54.4171 57.5642 20.2697 -33.511 35.9372 30.2036  80.701 37.9868 22.5905 30.4528 -2.9523 10.8216  61.418 -10.194 15.3872 14.7489 14.8375 13.8823 14.6003 10.1762
 -12.949 9.99499 24.3602 1.59533 49.4826  -0.042 27.4864  21.446 57.6463 56.8433 20.5504 -34.957 37.8669 31.7696 83.8694 35.4756  21.959 28.7312 -0.9376 36.1427 70.2569 -10.506 15.5863 14.8423 14.8994 13.9556 14.6912 10.2374
 -10.577 10.1069  24.398 1.83548 51.4367 0.91404 31.2931 22.3067 60.7411 55.8092 20.4613 -35.929 39.5901 33.2836 86.4918 33.3585 21.1649 27.2093 1.31847 71.3149 81.3094 -10.755 15.8368 14.9268  14.962 14.0291 14.7765 10.2979
 -8.3337 10.5345 24.0311  2.4839 53.1072 2.40553 34.9828 23.7377 63.6877  54.663 19.9803 -36.325 40.9562 34.4688 88.4135 31.6841 20.3369  26.091 3.89914 111.918 92.8989  -10.99  16.136 15.0063  15.018 14.1018 14.8557 10.3575
 -6.2676 11.2817 23.3203 3.47731 54.2964 4.27403 38.3397 25.6113 66.4442 53.4792  19.086 -36.103 41.7981 35.0746 89.4317 30.3765 19.5862 25.4784 6.82509 152.615 103.468 -11.202 16.4686 15.0816 15.0666  14.173 14.9323 10.4164
 -4.5164 12.2384 22.3542 4.72936 54.8371 6.35615 41.1262 27.7316 68.9599 52.2354 17.7612 -35.315 41.9671 34.9459 89.3586 29.2709 18.9708 25.3835 10.0583 189.536 112.161  -11.36 16.8094 15.1534 15.1134 14.2453 15.0105 10.4745
 -3.2781 13.1968 21.2331 6.14334 54.6405 8.50947 43.1342 29.8923 71.1975  50.891 16.0093 -34.104 41.3874 34.0775 88.0624 28.1919 18.5082 25.7664  13.532 220.307 118.173 -11.443 17.1349 15.2259  15.161 14.3231 15.0914 10.5319
 -2.6948 13.9491 20.0651   7.604 53.6961 10.6109 44.2324 31.9221  73.149 49.4408  13.895 -32.661 40.0985 32.6175 85.4961 27.0082  18.209 26.5518 17.1865 243.184 120.131 -11.453 17.4332 15.3079 15.2034 14.4083 15.1726 10.5886
 -2.7458 14.3815 18.9638 8.97968 52.0513 12.5557 44.3868  33.703  74.832 47.9222  11.564 -31.176 38.2477 30.7942 81.7151 25.6464 18.1002  27.633 20.9972 256.838 116.357 -11.416    17.7 15.4073  15.232 14.4978 15.2505 10.6445
 -3.2431 14.4854 18.0298   10.15 49.7724 14.2704 43.6472 35.1767 76.2675 46.4036 9.20609 -29.797 36.0313 28.8318 76.8649  24.091 18.2136 28.8783 24.9631 260.934 105.785 -11.383 17.9264  15.525 15.2486 14.5839 15.3235 10.6997
 -3.9354 14.2917 17.3152 11.0478 46.8993  15.731 42.1099 36.3399 77.4449 44.9695 6.97548 -28.627 33.6184 26.9474 71.1286 22.3791 18.5564 30.1328 29.0481 256.061 88.1095 -11.439 18.0941 15.6543 15.2669 14.6594 15.3918 10.7541
 -4.6186 13.8232 16.8004 11.6892 43.4425 16.9675  39.884 37.2209 78.2969 43.6924 4.93208 -27.709  31.106 25.4036 64.6602 20.5788 19.1061 31.2337 33.1478  242.77 63.0516 -11.696 18.1847  15.788    15.3 14.7201  15.456 10.8079
 -5.1678 13.1131 16.4158 12.1535 39.4344  18.047 37.0908 37.8545 78.7195 42.6228 3.05768 -27.011 28.5088  24.475  57.556 18.7651 19.8331 32.0561 37.1269 221.082 30.1263 -12.242 18.1963 15.9213 15.3495 14.7648 15.5161  10.861
  -5.523 12.2272 16.0966 12.5246 34.9758 19.0275 33.8742 38.2716  78.619 41.8019 1.30831 -26.457 25.7675  24.308 49.8782 17.0017 20.7153 32.5638 40.8828  191.07 -10.504 -13.104 18.1472 16.0502 15.4095 14.7959  15.572 10.9133
  -5.686 11.2355 15.8165 12.8495 30.2347 19.9131 30.3855 38.4965 77.9139 41.2414 -0.3564 -25.968 22.7877 24.8221 41.6873 15.3045 21.7237 32.8183 44.3603 154.174 -56.462 -14.239 18.0607 16.1693  15.478 14.8178  15.626 10.9651
 -5.7117 10.1867 15.5841 13.1387  25.411 20.6571 26.7498 38.5407 76.4913 40.8735 -1.9602 -25.495 19.4945 25.7477 33.0476 13.6115 22.7997 32.9405 47.5143 113.581 -103.01 -15.558   17.95 16.2748 15.5597 14.8367 15.6839 11.0161
 -5.6871 9.11994 15.4196 13.3855  20.705 21.2026 23.0563 38.4009 74.2125 40.5565 -3.5047  -25.04 15.8711 26.7484 24.0368 11.8075 23.8639 33.0746   50.29 73.0347 -145.63 -16.972 17.8164 16.3666 15.6571  14.859 15.7528 11.0665
 -5.7042 8.07815 15.3364 13.5836 16.3005 21.5056 19.3819 38.0635 70.9874  40.147 -4.9758 -24.649 11.9845 27.5257 14.7736 9.78573 24.8461 33.3739 52.6451 35.2325 -182.94 -18.444 17.6617 16.4485  15.762 14.8911 15.8372 11.1162
 -5.8189 7.10459 15.3308 13.7391 12.3457 21.5235 15.8088 37.4858 66.8282 39.5389 -6.3484 -24.384 7.98287 27.8619 5.42102 7.47356 25.7065 33.9815 54.5627 0.78688 -216.37 -19.994 17.4941  16.525 15.8605 14.9365 15.9357 11.1653
 -6.0213  6.2265 15.3867 13.8709 8.92868 21.1909 12.4008 36.5505 61.8322  38.636 -7.5821 -24.287 4.06831 27.6398 -3.8325  4.7992 26.4289 34.9737  56.012 -30.706 -246.45 -21.661 17.3256 16.5959  15.945 14.9948  16.042 11.2137
  -6.235  5.4435 15.4884 13.9975 6.05409 20.4175 9.17023 35.0596 56.1485 37.3397 -8.6155 -24.368 0.45842  26.881 -12.781 1.67093 26.9964 36.2984 56.8986 -58.192  -270.2 -23.445 17.1635 16.6558 16.0195 15.0643 16.1513 11.2616
 -6.3296 4.73653 15.6355 14.1192 3.64026 19.1239 6.07466 32.8081 49.9675 35.5777 -9.3624 -24.587 -2.6651 25.7381 -21.211 -1.9889 27.3895 37.7794 57.0839 -79.009 -282.82 -25.283 17.0074 16.7013 16.0916 15.1444 16.2633 11.3088
 -6.1486 4.08755 15.8621 14.1974 1.55578 17.2801 3.04842 29.6819 43.5223 33.3214 -9.7226 -24.851 -5.1717 24.3903 -28.931 -6.2048 27.6113 39.1891 56.4676 -91.624 -281.38 -27.056 16.8568 16.7379 16.1612 15.2342 16.3792 11.3554
 -5.5349 3.52193 16.2469 14.1462 -0.3323 14.9125 0.03702 25.7073 37.0748 30.5709 -9.6063 -25.026  -6.956 22.9592 -35.811  -10.94 27.7088 40.3289  55.059 -97.406 -266.18 -28.629 16.7199 16.7785 16.2209  15.328 16.4951 11.4014
 -4.3335  3.1454 16.8868 13.8644 -2.1466 12.0896 -3.0009  21.044 30.8687  27.338  -8.954 -24.956 -7.9423 21.5421 -41.816 -16.099 27.7556 41.0647 52.9718 -98.801 -239.38 -29.901 16.6118 16.8319 16.2671 15.4168 16.6027 11.4468
 -2.4248 3.11285 17.8375 13.2944 -4.0014 8.92155 -6.1125 15.9594 25.0755 23.6595 -7.7443 -24.497 -8.1258 20.2788  -47.01 -21.529 27.7982 41.3122 50.3582 -96.059 -202.63 -30.814  16.543 16.8964  16.308 15.4945 16.6973 11.4916
  0.2124 3.56208 19.0612 12.4654  -5.974 5.57311 -9.3347  10.801 19.7981 19.6335  -6.002 -23.567 -7.5912 19.3516 -51.509 -27.005 27.8338 41.0241 47.3746  -86.73 -156.73 -31.327 16.5107  16.965  16.356 15.5611 16.7793 11.5358
 3.47123 4.56758 20.4376 11.4756 -8.0581  2.2559 -12.628 5.95336 15.1376 15.4413 -3.8169 -22.163 -6.4985 18.9026 -55.401 -32.262  27.848 40.2087 44.2075  -68.72 -103.57   -31.4 16.5054 17.0344 16.4155 15.6204  16.852 11.5795
 7.14435 6.11669 21.8236  10.438  -10.15 -0.8193 -15.839 1.76755 11.2405 11.3155 -1.3578 -20.362 -5.0654 18.9244  -58.69  -37.05 27.8579 38.9414 41.0863  -43.28 -47.775 -30.976  16.519 17.1081 16.4806 15.6751 16.9178 11.6226
 10.9797 8.10527 23.1021 9.44499 -12.088 -3.5009 -18.742 -1.5184 8.27205 7.47005 1.14583  -18.31 -3.5367 19.2426 -61.308 -41.215 27.9125 37.3319 38.2365 -14.411 4.66765 -29.993 16.5449  17.189 16.5434 15.7263 16.9769 11.6651
 14.7133 10.3426 24.1951 8.56224 -13.712 -5.7157 -21.124 -3.8232 6.35932 4.05635 3.43705 -16.189 -2.1078 19.6161 -63.154 -44.728 28.0421 35.4681 35.8055 14.6273 49.3356  -28.45 16.5774 17.2745 16.6036 15.7759 17.0289 11.7071
 18.0807 12.5642 25.0523 7.83917 -14.932 -7.4445 -22.837 -5.2007 5.56264 1.16943 5.25852  -14.18 -0.8734 19.8486 -64.133 -47.638 28.2098  33.395 33.8295 43.5918 84.3999 -26.445  16.613 17.3595 16.6665 15.8288 17.0744 11.7486
 20.8473 14.4799 25.6462 7.31703 -15.733  -8.692 -23.803 -5.7687 5.88987 -1.1141 6.39486 -12.419 0.13414 19.8413 -64.169 -49.985  28.322 31.1417 32.2788 74.0296 109.619 -24.152 16.6551 17.4426 16.7348   15.89 17.1131 11.7895
 22.8497  15.857 25.9842 7.01362 -16.137 -9.4795 -23.976 -5.6463 7.32367 -2.7085 6.73225 -10.962 0.90879 19.5865 -63.189 -51.751 28.2841 28.7579 31.1329 106.386 125.279 -21.768 16.7107 17.5268 16.8048 15.9599 17.1408 11.8299
 24.0257 16.5865 26.1094 6.91358 -16.155  -9.852 -23.342 -4.9414 9.81014 -3.5415 6.29955 -9.7788 1.49142 19.1284 -61.146 -52.861 28.0402   26.32  30.405 138.737 132.072 -19.479 16.7831 17.6144 16.8715 16.0341 17.1541 11.8697
  24.423 16.6843 26.0704 6.99013 -15.789 -9.8721 -21.934 -3.7623 13.2301 -3.5937 5.27085 -8.7837 1.97903 18.5451 -58.057 -53.228 27.5588 23.9135 30.1029 168.341 131.732 -17.433 16.8706 17.7033 16.9349 16.1072  17.155 11.9091
 24.1782 16.2612 25.8871 7.23447 -15.047 -9.6095 -19.841 -2.2221 17.4042 -2.9126 3.91765 -7.8593 2.50615  17.968 -54.018 -52.782 26.8166 21.6114 30.1957 193.435 126.911 -15.718 16.9724 17.7878 16.9972 16.1759 17.1492 11.9479
 23.4814 15.5089 25.5447 7.66041 -13.941 -9.1466 -17.186  -0.445 22.1313  -1.616 2.52552 -6.8661   3.222 17.5762 -49.169 -51.517  25.813 19.4713  30.634 213.279 119.992  -14.37  17.094 17.8635 17.0555  16.241 17.1419 11.9863
 22.5414 14.6668 25.0225 8.27855  -12.48 -8.5741 -14.091 1.43819  27.225  0.1164 1.34085 -5.6759 4.25242 17.5485 -43.662 -49.518 24.5947 17.5638 31.3977  227.46 112.231  -13.39 17.2446 17.9292 17.1027 16.3066 17.1376 12.0241
 21.5464 13.9393 24.3393 9.05874  -10.66 -7.9559 -10.659 3.31089 32.5043 2.06009 0.56416 -4.2248  5.6667 17.9969 -37.654 -46.949 23.2674 16.0122 32.5136 235.855 104.069 -12.764 17.4259 17.9841 17.1361 16.3771 17.1427 12.0615
 20.6356 13.4272 23.5857 9.90484 -8.4815 -7.2974 -6.9987 5.08146 37.7484 3.95446  0.3417 -2.5392 7.46326 18.8865 -31.338 -44.037 21.9707 14.9757 34.0069 239.277 96.3951 -12.447 17.6265 18.0233 17.1618 16.4538 17.1637 12.0983
 19.9038 13.1423 22.9141 10.6628 -5.9683 -6.5672 -3.2567 6.66909 42.6882 5.53818  0.7354 -0.7237 9.55303 20.0167 -24.952 -41.053 20.8281 14.5762 35.8349 239.367 90.9896 -12.319 17.8256 18.0434 17.1888 16.5341 17.2033 12.1347
 19.4195 13.0702 22.4896 11.1662 -3.1891  -5.758 0.37648 7.98743 47.0446 6.61611  1.6966 1.08436 11.7604  21.117 -18.759  -38.28 19.9244 14.8345 37.8806 237.557 89.4152  -12.21  18.004 18.0513 17.2174 16.6133 17.2566 12.1706
 19.2299  13.186 22.4385 11.2906  -0.257  -4.915 3.68018 8.94709 50.5727 7.10827 3.07205 2.77273 13.8591  21.969 -13.015 -35.945 19.3191 15.6629 39.9983 234.449 91.7986 -11.961 18.1534 18.0618 17.2375 16.6863 17.3135 12.2061
 19.3566 13.4157 22.8136 10.9926  2.6754  -4.101 6.44113 9.47796 53.1133 7.06951 4.63593 4.28592  15.627 22.4895 -7.9241 -34.146 19.0522 16.8916 42.0572 230.188 96.8391 -11.489 18.2771 18.0868 17.2412 16.7489 17.3648 12.2411
  19.807 13.6319 23.5701 10.3312 5.43193 -3.3427 8.51543 9.56127 54.6623 6.68817 6.13909  5.6189 16.9077 22.7639  -3.582  -32.81   19.12 18.3011 43.9602  225.42 103.133 -10.791 18.3841 18.1287 17.2348 16.7974 17.4067 12.2757
 20.5873 13.7062 24.5688 9.45828 7.84706  -2.609 9.88754  9.2494 55.4121 6.24857 7.37582 6.80184 17.6625 22.9978 0.05561 -31.721 19.4631 19.6572 45.6539 221.389 109.959 -9.9148 18.4819 18.1818 17.2328 16.8302 17.4402 12.3098
 21.6896 13.5459 25.6145 8.57321 9.81822 -1.8304 10.6971 8.66215 55.7286 6.07433 8.24406 7.88121  17.986 23.4255 3.17698 -30.591 19.9818 20.7641 47.1584 218.917 116.696 -8.9294 18.5749 18.2379 17.2423 16.8482  17.468 12.3434
  23.091 13.0955 26.5143 7.86251 11.3507 -0.9264 11.2241 7.96365 56.0675 6.47055 8.78106 8.89261 18.0507  24.258 6.07201  -29.15 20.5672  21.524 48.5882 217.711 122.175 -7.8897 18.6695 18.2921  17.258 16.8536 17.4928 12.3766
 24.7906  12.354 27.1288 7.45244 12.5497 0.18429 11.8179  7.3186 56.8391 7.65041 9.15322 9.85891 18.0194 25.6376 9.04434 -27.215 21.1388 21.9646 50.1143 216.657 124.876 -6.8223 18.7727 18.3439 17.2722 16.8479 17.5164 12.4094
 26.8067 11.3955 27.3876 7.39718 13.5556 1.57044 12.7858 6.84709 58.2906 9.68171 9.57505 10.8091 18.0126 27.5606 12.3228 -24.722 21.6537 22.2033 51.8774 214.869 123.824 -5.7246 18.8843 18.3924 17.2836 16.8316 17.5416 12.4418
  29.099 10.3552 27.2699 7.70366 14.4704 3.26861 14.3053 6.61109 60.4725 12.4966 10.1993 11.7888 18.0904 29.8536  16.012   -21.7 22.0816 22.3737 53.9239 211.938 118.697 -4.5898 18.9902 18.4341 17.2979 16.8055 17.5715 12.4738
 31.5238   9.406 26.7839 8.35814 15.3257 5.27479 16.4054 6.63666 63.2779 15.9372 11.0688 12.8638 18.2366  32.242 20.0839  -18.23  22.389 22.5732 56.2197 207.128 108.971  -3.434 19.0695 18.4667 17.3178  16.773 17.6077 12.5053
 33.8986 8.71893 25.9788 9.31702  16.114 7.54919   19.01 6.95298 66.5083 19.8018 12.1675 14.1056 18.4091 34.4499  24.406 -14.401 22.5389 22.8623 58.7137 198.871 93.4595 -2.2867 19.1108 18.4934 17.3362 16.7386 17.6502 12.5364
 36.1055 8.40978  24.969 10.4786 16.8402 10.0214  21.988 7.62693 69.9287 23.8787  13.502 15.5683 18.5858 36.2924 28.7836 -10.283 22.4962 23.2917 61.3885 185.216 70.8792  -1.179 19.1188 18.5195 17.3419 16.7059 17.7007 12.5672
 38.1147 8.49767 23.9133 11.6912 17.5322 12.5943 25.1732  8.7722 73.2866 27.9605 15.1086 17.2733 18.7427 37.7181 32.9938 -5.9396 22.2303 23.9163 64.2594 164.928 41.0954  -0.152 19.1049 18.5466 17.3341  16.678 17.7648 12.5975
 39.9223 8.89814  22.944  12.819 18.2003 15.1618 28.3618 10.5278 76.3119 31.8607 16.9777 19.1981 18.8398 38.7936 36.8163 -1.4302 21.7165 24.7862 67.3275 137.801 5.43103 0.75163 19.0741 18.5736 17.3252 16.6619 17.8473 12.6275
 41.5182 9.46726 22.1127 13.8063   18.81 17.6449 31.3363 13.0217 78.7462 35.4621 19.0033 21.2755   18.86   39.69  40.085 3.21465 20.9605 25.9467 70.5436 104.093 -34.482 1.51416 19.0257 18.6016 17.3283  16.667 17.9488  12.657
 42.9242 10.0756 21.3912 14.6836 19.3201 20.0116 33.9294 16.3197 80.4004 38.7518 21.0279 23.4096 18.8386 40.6509 42.7459 8.00703 20.0221 27.4366 73.8225 64.1799  -77.75 2.16165 18.9633 18.6368 17.3475 16.6994 18.0645 12.6862
 44.2087 10.6546 20.6949 15.5386 19.7242 22.2613 36.0608 20.3552  81.172 41.7737 22.9043 25.4956 18.8155 41.8941 44.8569 12.9456 19.0102 29.2668 77.0714 18.7553 -123.64  2.7516 18.8995 18.6844 17.3815 16.7564  18.185  12.715
 45.4481  11.177 19.9048 16.4894 20.0403 24.3935 37.7162 24.8909 81.0211 44.5509 24.4842 27.4281 18.7567  43.529 46.5312 17.9603 18.0474 31.3977 80.1837 -29.867 -169.22 3.31626 18.8503 18.7417 17.4314 16.8289  18.299 12.7434
 46.6953  11.614 18.8969 17.6539 20.2856 26.3961 38.9164 29.5648 79.9637 47.0639 25.5839 29.1062 18.5487 45.5727 47.8923  22.932 17.2275 33.7403 83.0143 -76.641 -208.16 3.82157 18.8259 18.7994 17.5034 16.9076 18.3992 12.7715
 47.9688 11.9373 17.5776 19.1155 20.4607 28.2461 39.6967 33.9828 78.0834  49.261 26.0246 30.4618 18.0675 47.9827  49.056 27.7362 16.5995 36.1814 85.3903 -115.56 -233.35  4.1999 18.8257 18.8513 17.6012 16.9863 18.4851 12.7992
 49.2462 12.1429 15.9158 20.8932 20.5373 29.8948 40.0857   37.79 75.5138 51.0424  25.726   31.48 17.2451 50.6194 50.1094 32.2452 16.1822 38.6176 87.1578 -143.16 -240.63 4.41208 18.8474 18.8979 17.7183  17.061 18.5566 12.8265
 50.4699 12.2494 13.9737 22.9141 20.4669  31.251 40.0906 40.7101  72.379 52.2501 24.7614 32.1847 16.1056 53.2171 51.0744 36.3177 15.9897 40.9757 88.2134 -159.89 -230.18 4.49006 18.8962 18.9422 17.8405 17.1285 18.6091 12.8535
 51.5668 12.2847 11.9157 25.0076 20.2014  32.177 39.6818 42.5656 68.7215 52.6947 23.3306 32.6129 14.7722  55.456 51.8784 39.8111 16.0353 43.1962 88.4857 -168.01  -204.8 4.54057 18.9799 18.9836 17.9563  17.186  18.638 12.8801
 52.4672 12.2727 9.97637 26.9456 19.6896 32.5151 38.7813 43.2912 64.4898 52.2141 21.6927 32.8003 13.4139 57.0816  52.373 42.6138 16.3096 45.1858 87.8867 -168.28 -167.41 4.69381 19.0981 19.0164 18.0644 17.2344  18.644 12.9064
 53.1106 12.2178 8.39739 28.5103  18.861 32.1426 37.2831 42.9477 59.6196 50.7477 20.1042 32.7802  12.156   57.98 52.4056 44.6833 16.7663    46.8 86.2971  -159.5 -120.48 5.03507 19.2389 19.0338 18.1685 17.2794 18.6329 12.9324
 53.4435 12.0946 7.37292 29.5404 17.6439 31.0217 35.1168 41.7084 54.1345 48.3782 18.7751 32.5863 11.0575  58.203 51.8927 46.0556 17.3286 47.8793 83.6129 -141.32 -67.965 5.56919 19.3893 19.0334 18.2674 17.3278 18.6118  12.958
 53.4503 11.8702 7.01996 29.9329 16.0199 29.2119 32.3098 39.8015 48.1794 45.2828 17.8567 32.2681 10.1615 57.9718 50.8612 46.7971 17.9121 48.3057 79.8234 -116.78   -16.3 6.22652 19.5395 19.0203 18.3517 17.3818 18.5866 12.9833
 53.1874 11.5399 7.36295 29.6506 14.0582 26.8586 28.9904 37.4421 41.9828 41.6383  17.436 31.9053 9.54311 57.6137 49.4518 46.9408 18.4418 48.0267 75.0596 -91.298 27.8439 6.90809 19.6805 19.0039 18.4142 17.4364 18.5619 13.0082
  52.756 11.1227 8.31807  28.757 11.8907 24.1754 25.3336 34.8023 35.8026 37.5758 17.5042 31.5828 9.31005 57.4014 47.8881 46.4862 18.8349 47.0335 69.5639 -69.134 60.6214 7.54068 19.8048 18.9919 18.4599  17.483 18.5415 13.0329
 52.2424 10.6243 9.69516 27.4337 9.65505 21.4139  21.502 32.0149 29.8895 33.1975 17.9512 31.3436  9.5376 57.4219 46.4255 45.4683 18.9959 45.3521 63.6149 -50.991 81.2749 8.10278 19.9103 18.9888 18.5019 17.5175 18.5299 13.0572
 51.6988 10.0221 11.2535 25.9228 7.48447 18.8034 17.6235 29.1601 24.4642 28.5824 18.6411 31.1638 10.2302 57.5959 45.3062 43.9887 18.8606 43.0619 57.4733 -35.249 90.6064 8.63365 20.0026 18.9993  18.548 17.5436 18.5308 13.0812
 51.1691 9.29475 12.7944 24.4308 5.53267 16.4699 13.8073  26.229 19.7002 23.7585 19.4987 30.9541 11.3599 57.7845 44.7319 42.1605 18.4448 40.2878 51.3603 -20.835 90.0033 9.23014 20.0884  19.028 18.5947 17.5674 18.5459 13.1049
 50.7057 8.45735 14.2238 23.0629 3.96536 14.3906  10.164 23.1328 15.7201 18.7052 20.5094 30.5843 12.8963  57.855 44.8482 40.0622 17.8393 37.1471 45.4571 -8.2974 81.6043 9.99722 20.1686 19.0743 18.6341 17.5915 18.5747 13.1283
 50.3573 7.54836 15.5543 21.8147 2.93887 12.4193 6.81538 19.7752 12.6058 13.4074 21.6663 29.9187  14.799 57.6774 45.7438 37.7575 17.1513 33.6979  39.915 2.17478 69.2218 10.9768 20.2385 19.1289 18.6627 17.6154 18.6155 13.1513
 50.1441 6.58697 16.8632 20.6103 2.58596 10.3655   3.888 16.1172 10.4038 7.91066 22.9464 28.8582 17.0104 57.1216 47.4492 35.3242 16.4508 29.9306 34.8606 12.6754 57.8908 12.1341 20.2936 19.1805 18.6814 17.6411 18.6653 13.1741
 50.0432 5.55337 18.2402 19.3597 2.98522 8.07644 1.50099 12.1893 9.12929 2.34499 24.3123 27.3779 19.4378 56.0964 49.9285 32.8508 15.7641 25.8023 30.3998  26.371 51.1287  13.413 20.3347 19.2258 18.6902 17.6745 18.7178 13.1966
 49.9951 4.39794  19.753 17.9945 4.13552  5.4876 -0.2452 8.07761 8.77829 -3.0858 25.7159 25.5348 21.9583 54.6141   53.08 30.4185 15.1118 21.2961 26.6303 44.5454 48.9754 14.7817 20.3655 19.2683  18.685 17.7203 18.7646 13.2188
 49.9445 3.06475 21.4435 16.4675 5.95234 2.64307 -1.3005  3.9109 9.32442 -8.1357 27.1162 23.4498 24.4717 52.8256 56.7368 28.0929 14.5431 16.4669 23.6453 65.4424 49.4034 16.2134 20.3893 19.3085 18.6666 17.7766 18.7989 13.2407
 49.8858 1.51411 23.3325 14.7476 8.26663 -0.3089  -1.717 -0.1503 10.6921 -12.551  28.485 21.2747 26.9323 50.9773 60.6612  25.924 14.1202 11.4451 21.5029 86.2157 51.2635 17.6476 20.4102 19.3399 18.6472 17.8362  18.819 13.2624
 49.8533 -0.2541 25.4075 12.8334 10.8313 -3.1396 -1.6704 -3.9294 12.7431 -16.102 29.7802 19.1677 29.3255 49.3447 64.5649 23.9515 13.8796 6.41349 20.1888 105.148 55.2335 19.0145 20.4308 19.3574 18.6429 17.8917 18.8271 13.2837
 49.8833 -2.1712 27.6012 10.7779 13.3472 -5.5812 -1.4122  -7.249 15.3047 -18.618 30.9566 17.2829 31.6296 48.1958 68.1618 22.2115  13.824 1.58337 19.6302 121.698 62.4521 20.2857 20.4527  19.365 18.6603 17.9392 18.8269 13.3048
 50.0001 -4.1065 29.7855 8.69887 15.5014 -7.3825  -1.179  -9.935 18.2233 -20.004 32.0246 15.7437 33.7945 47.7226   71.22 20.7544 13.9357 -2.8308 19.7458 135.451 72.8807 21.4688 20.4798 19.3739 18.6929 17.9769 18.8228 13.3256
 50.1981 -5.9314 31.8003  6.7585 17.0157  -8.362  -1.132 -11.817 21.3836 -20.242   33.07 14.6113 35.7675  47.955 73.5865  19.668 14.1896 -6.6303 20.4785   145.9 85.0183 22.5631 20.5166 19.3932 18.7313 18.0024  18.821 13.3461
 50.4213 -7.5717 33.5082 5.10615 17.6986 -8.4337 -1.3537 -12.752 24.6776 -19.386 34.2107  13.888 37.5371 48.7743 75.1875   19.06 14.5668 -9.6608 21.7675 153.385 97.2139 23.5388 20.5621 19.4223 18.7726 18.0137 18.8277 13.3664
 50.6047 -8.9907 34.8374 3.82671 17.4836 -7.6117 -1.8705 -12.681 27.9719 -17.589 35.5497 13.5436 39.1146 50.0204 76.0279 19.0017 15.0693 -11.853 23.4954 159.392 108.587 24.3377 20.6084 19.4546 18.8182  18.013 18.8442 13.3864
 50.7452 -10.137 35.7777 2.93994 16.4463 -6.0139 -2.6385 -11.668 31.1239 -15.088 37.1415 13.5188 40.4836 51.5564 76.1975 19.4824 15.7306 -13.236 25.4883 165.442 118.521 24.8709  20.647 19.4869  18.865 18.0066 18.8672 13.4061
 50.9277 -10.913 36.3588 2.42375 14.7914 -3.8641 -3.4996 -9.8914   34.03 -12.145 38.9891 13.7058 41.6308 53.2339 75.8669 20.4013 16.6113 -13.908  27.589  171.93 125.961 25.0326 20.6737 19.5215 18.9034 18.0031 18.8919 13.4256
  51.281 -11.202 36.6391 2.22444 12.8025 -1.4576 -4.1766 -7.5811  36.657 -8.9655 41.0681 13.9543 42.6213 54.8633 75.2438 21.6053 17.7786 -13.982 29.7398 178.102 129.555 24.7492 20.6865 19.5601 18.9258 18.0102 18.9162 13.4449
 51.8858  -10.93 36.6793 2.28024 10.7773  0.9276  -4.334 -4.9357 39.0415 -5.6514 43.3253 14.1204 43.5746 56.2725 74.5161 22.9609 19.2593 -13.549 31.9945 183.136 128.507 24.0198 20.6825 19.5984 18.9349 18.0332 18.9411 13.4639
 52.7038 -10.127 36.4961 2.56676 8.96323 3.11213 -3.6736 -2.0796 41.2528 -2.1898 45.6364 14.1237 44.5571 57.3819 73.8126 24.4021 20.9885  -12.66 34.4464 186.627 122.666 22.9153 20.6551 19.6314  18.941 18.0735 18.9686 13.4826
 53.5824 -8.9188 36.0482 3.11666 7.50836 5.01776 -2.0412 0.91386 43.3115 1.47564 47.7995 13.9681 45.5449 58.2142 73.1563 25.9086 22.8103 -11.348 37.1422 187.898 111.667 21.5583 20.5952 19.6607 18.9534 18.1285 18.9988 13.5011
 54.3225 -7.4804 35.2829 3.98028 6.45733 6.64123 0.51676 3.99213 45.1227 5.36624 49.5986 13.7139 46.4816 58.8402 72.4351 27.4622 24.5292 -9.6401 40.0549  185.44 94.4833 20.0834  20.503 19.6934 18.9725 18.1923 19.0291 13.5194
 54.7696 -5.9718 34.1952 5.16659 5.79697   8.069 3.80002 7.14583 46.5031   9.459 50.8861 13.4435 47.3287 59.3273 71.4537 29.0642 25.9786 -7.5522 43.1213 177.255  70.013 18.5911 20.3921 19.7342 18.9926 18.2555 19.0561 13.5374
 54.8721  -4.506 32.8342 6.63294 5.50086 9.48968 7.55535 10.4425 47.2627 13.7234 51.6209 13.2368 48.0729 59.7328 70.0381 30.7917 27.0615 -5.0863 46.2744  161.88 38.3543 17.1336 20.2802 19.7806 19.0119 18.3087 19.0788 13.5552
  54.679 -3.1439 31.2664 8.31918 5.53894 11.1418 11.5337  13.997 47.2514 18.1193  51.853 13.1506  48.712 60.1027  68.097 32.7961 27.7505 -2.2686 49.4332 138.649 1.11834  15.733 20.1774 19.8252 19.0352  18.347 19.0999 13.5728
 54.3194 -1.8773 29.5583 10.1586 5.87739 13.2204 15.5007 17.8864 46.3764 22.5491 51.7164 13.2232  49.234  60.432 65.6299 35.2098 28.0731 0.82274 52.4979 107.071 -39.806  14.395 20.0864 19.8623 19.0663 18.3723 19.1215 13.5901
   53.99 -0.6249 27.7932 12.0561 6.49725 15.7976 19.2594 22.0801 44.6377 26.8351 51.4513 13.4811 49.6224 60.6239 62.7213 38.0416 28.0931 4.07546 55.3808 66.6954 -83.446 13.1034  20.011 19.8922 19.1016 18.3889 19.1423 13.6072
 53.9036 0.70621 26.0793 13.8855 7.41864 18.7956 22.6797 26.4304 42.1575 30.7486 51.3775 13.9261 49.9046  60.525 59.5299 41.1458 27.8897 7.38044 58.0405 18.0789 -129.24 11.8401 19.9599 19.9186 19.1349 18.3983 19.1596 13.6241
 54.1892 2.13589 24.5292 15.5213 8.70077 22.0208 25.6937 30.6999 39.1639 34.0586 51.7957  14.524 50.2044 60.0286 56.2592 44.2566 27.5312 10.6429 60.4632 -35.407 -174.56 10.6222 19.9401 19.9435 19.1661 18.3974 19.1727 13.6408
  54.828  3.5942 23.2259  16.879 10.3915 25.2265 28.2516 34.5933 35.9255 36.5681 52.8846 15.2187 50.6908 59.1503  53.114  47.045 27.0525 13.7598 62.5916 -87.081 -213.36 9.48507  19.948 19.9652 19.2013 18.3819  19.183 13.6573
  55.685  4.9843 22.1975 17.9374 12.4479 28.1652 30.2751 37.7886 32.6598 38.1329 54.6496 15.9646 51.4247  58.005 50.2375 49.1826 26.4663   16.61 64.2827  -129.6 -238.65 8.45314  19.969 19.9824 19.2466 18.3495  19.193 13.6735
 56.5897 6.24491 21.4179 18.7275  14.708 30.6141 31.6456 39.9785  29.467 38.6713 56.9338 16.7361 52.2885 56.7037 47.6553 50.3993 25.7961 19.0783 65.3505 -158.64 -246.25 7.57772 19.9899 19.9972 19.3013 18.3022 19.2046 13.6895
  57.397 7.35787 20.8328 19.3081 16.9386 32.3855 32.2229 40.9093 26.3241 38.1473 59.4836 17.5039 53.0529 55.2621 45.2533 50.4954  25.087 21.0881 65.6417 -174.21 -236.14 6.98076 20.0105 20.0132  19.356 18.2448 19.2183 13.7054
 57.9965 8.31812 20.3857 19.7481 18.9066 33.3329 31.8704  40.402 23.1211 36.5429 62.0301 18.2102 53.4801 53.6127 42.8045 49.3195 24.3933  22.613 65.0638 -178.55  -210.9 6.82699 20.0394  20.029 19.4011 18.1838 19.2316  13.721
 58.2861 9.10672  20.022 20.1192 20.4398 33.3573 30.4972 38.3726 19.7202 33.8638 64.3516 18.7735 53.4203 51.7157 40.0473  46.773 23.7645 23.6671 63.5724 -173.09 -173.19 7.26359 20.0822 20.0368 19.4356 18.1269 19.2421 13.7364
 58.1725 9.70111  19.685 20.4844 21.4677 32.4187 28.1227 34.8619 16.0298  30.179 66.2956 19.1272 52.8612  49.647 36.7732 42.8461 23.2564  24.307 61.1846 -158.18 -125.49 8.37621  20.135 20.0288 19.4625 18.0824 19.2512 13.7517
 57.6086 10.1035 19.3364 20.8725 22.0199 30.5461 24.9148 30.0494 12.0612 25.6347 67.7814 19.2521 51.9056 47.5451 32.8766 37.6288 22.9465 24.6336 58.0133 -135.66 -71.999 10.1536  20.196 20.0045 19.4809  18.059 19.2622 13.7667
 56.6363  10.357 19.0009  21.242 22.1901 27.8349 21.1629 24.2324 7.93304 20.4181  68.816 19.1736 50.7208 45.4905 28.3582  31.294  22.922 24.7644 54.2708  -110.4 -19.473 12.4745 20.2752 19.9711 19.4861 18.0618 19.2736 13.7815
 55.3911 10.5408 18.7797 21.4818 22.0886 24.4367  17.196 17.7803 3.82999 14.7172  69.496 18.9434 49.4805 43.4763 23.3099 24.0793 23.2337 24.7771 50.2228 -88.294 25.2309 15.1506  20.388 19.9369 19.4778 18.0911 19.2788 13.7962
 54.0409 10.7244 18.7906  21.482 21.7772 20.5416 13.2753 11.0763 -0.0552 8.70504 69.9402 18.6203  48.295 41.4716 17.8817 16.2578 23.8448 24.6469  46.105 -72.582 58.2076 18.0011  20.539  19.906 19.4659 18.1449  19.274 13.8106
 52.7063 10.9193 19.0886 21.2063 21.2104 16.3652 9.51419 4.46604 -3.5765 2.52393 70.1964 18.2542 47.1778 39.4746 12.2375 8.09028 24.6339 24.2376 42.0591 -62.376  78.686 20.8978 20.7169 19.8809 19.4639 18.2214 19.2628 13.8249
 51.4231 11.0806 19.6374 20.7034 20.2395 12.1394 5.87783 -1.7691 -6.6673 -3.7395 70.2159 17.8664 46.0581 37.5149 6.51218 -0.2193 25.4604 23.3777 38.1429 -54.641 87.4549  23.764 20.9056 19.8643 19.4795 18.3191 19.2515  13.839
  50.159  11.144 20.3348 20.0737 18.6777 8.08912 2.24389 -7.4136 -9.3455 -10.055 69.9011 17.4399 44.8187 35.6178 0.78026 -8.5393 26.2286 21.9595 34.3883 -47.427 85.8812   26.55 21.0887 19.8596 19.5123 18.4345 19.2444 13.8528
 48.8567 11.0639 21.0591 19.4263 16.3912 4.41328 -1.5145 -12.291 -11.686 -16.385 69.1604 16.9407 43.3662 33.7838  -4.941 -16.764 26.9152 20.0042 30.8555 -40.935 76.0885 29.1995 21.2468 19.8672 19.5589 18.5589 19.2443 13.8666
 47.4528 10.8288 21.7075   18.85 13.3806 1.28882 -5.4539 -16.231 -13.769 -22.599 67.9286 16.3461 41.6831 32.0013 -10.659 -24.737 27.5541 17.6886 27.6481  -35.34  61.898 31.6362 21.3619 19.8816 19.6181 18.6786 19.2545 13.8801
 45.8642 10.4742 22.2049 18.4128 9.80606  -1.133 -9.5272 -19.061 -15.654 -28.457 66.1739 15.6623 39.7951 30.2742 -16.389 -32.243 28.1989 15.3318 24.8919 -28.668 48.3906  33.779 21.4266 19.8952 19.6904  18.782 19.2771 13.8935
 43.9922 10.0872 22.5011 18.1701 5.95311 -2.7583 -13.588  -20.65 -17.391 -33.692 63.9153 14.9312 37.7223  28.644 -22.148 -39.061  28.902 13.3427 22.7181 -17.938 39.1682 35.5622 21.4495 19.9056  19.771 18.8636 19.3098 13.9067
 41.7714 9.76247 22.5841 18.1459 2.18211 -3.5798 -17.404 -20.948 -19.049 -38.103 61.2372 14.2137 35.4947  27.149 -27.945 -45.049 29.7214 12.1439 21.2612 -2.0862 34.4515 36.9515 21.4477 19.9164 19.8497  18.922 19.3477 13.9197
 39.2278 9.54935 22.4965 18.3059 -1.1287 -3.6861 -20.698 -20.032 -20.738 -41.632  58.275   13.55 33.1753 25.7334 -33.776 -50.189 30.7232 12.0797  20.635 16.9944 32.5767 37.9463 21.4342 19.9299 19.9172 18.9566 19.3868 13.9326
 36.4791 9.45943 22.3213 18.5697  -3.651 -3.2399 -23.207 -18.093  -22.64 -44.382 55.1627 12.9249 30.8401 24.2142 -39.653 -54.606 31.9478 13.3286 20.8654 36.5499  32.855 38.5503  21.413 19.9433 19.9728  18.968 19.4251 13.9452
 33.6665 9.49114 22.1433 18.8517 -5.1589 -2.4129 -24.719 -15.378 -25.002 -46.589  51.978 12.2796 28.5761 22.3518 -45.591 -58.507 33.3828 15.8743 21.8487 55.1967 36.2707 38.7444 21.3819 19.9538 20.0205 18.9606 19.4617 13.9578
 30.8876 9.61636 22.0172 19.0923 -5.5467 -1.3104 -25.061 -12.082 -28.039 -48.519 48.7456 11.5595 26.4762 19.9649 -51.552 -62.063 34.9765 19.5452 23.4032 72.7586  43.986 38.4937 21.3423  19.964 20.0605 18.9426 19.4963 13.9701
  28.203 9.76698 21.9589 19.2614 -4.8267 0.06205 -24.109 -8.2926  -31.84 -50.383 45.5063 10.7493 24.5924 17.0209  -57.42 -65.321 36.6679 24.0815 25.3731 88.8805 55.7542 37.7717 21.3026 19.9818 20.0878 18.9221   19.53 13.9823
 25.6781 9.85413 21.9486 19.3547  -3.113 1.76771 -21.824 -4.0244 -36.354 -52.311 42.3625 9.86247 22.9397 13.6641  -63.02   -68.2 38.4107 29.1998 27.6817 102.653 69.7243 36.5793 21.2733 20.0126 20.0992 18.9041 19.5644 13.9944
 23.3647 9.77682 21.9313 19.4037 -0.5917  3.8724 -18.307 0.68343  -41.41 -54.347 39.4509 8.89714 21.5509 10.1602 -68.136 -70.542 40.1649 34.6298 30.2909 113.827 83.8695 34.9439 21.2588 20.0548 20.0976 18.8908 19.6003 14.0063
 21.2405 9.42217 21.8169 19.4845 2.51796  6.3984 -13.785 5.71858 -46.734 -56.422 36.8847 7.81364 20.4711 6.79848 -72.525 -72.145  41.868 40.1171 33.1346 123.539 97.0447 32.8952 21.2542 20.1027 20.0912 18.8832 19.6386  14.018
 19.2103 8.70177  21.505 19.6957 6.00665 9.31558 -8.5491 10.9083 -51.958 -58.359 34.7319 6.55779 19.7133 3.81421 -75.956 -72.819 43.4363 45.4296 36.1195 133.264 108.504 30.4436  21.251 20.1524 20.0861 18.8795 19.6786 14.0296
 17.1923 7.59601 20.9355 20.1104 9.70697 12.5408 -2.8804 16.0431 -56.665 -59.947 33.0498 5.09251 19.2701 1.35921 -78.246 -72.468 44.8027 50.3819 39.1787 143.318 117.113 27.5657 21.2449 20.2033  20.083 18.8746 19.7174  14.041
 15.2089 6.16184 20.1104 20.7541 13.4907 15.9356 2.96262 20.8863 -60.464 -61.011 31.9192 3.42498 19.1703 -0.4943 -79.283 -71.141 45.9532 54.8484 42.2923 152.598 121.412 24.1924 21.2362  20.255 20.0804 18.8627 19.7519 14.0523
 13.4046 4.50878 19.0756  21.616 17.2202 19.3204 8.71465 25.1926 -63.061 -61.449 31.4129 1.61612  19.479 -1.7767 -79.046 -69.031  46.928 58.7402 45.4357 159.788   120.5 20.2476 21.2237 20.3024 20.0814 18.8406 19.7807 14.0635
 11.9849  2.7715  17.906 22.6514 20.6991 22.4983 14.0734  28.741 -64.325 -61.251 31.5192 -0.2411 20.2233 -2.6495 -77.635 -66.418 47.7917 61.9823  48.509 164.141 114.202 15.7377 21.2005 20.3378 20.0925 18.8106 19.8045 14.0745
 11.1292 1.08571  16.705 23.7733 23.6705 25.2781 18.7128 31.3558 -64.305 -60.478 32.1051  -2.052 21.3398 -3.3448 -75.283 -63.601 48.6057 64.5209 51.3317 164.929 102.265 10.8531 21.1584 20.3587 20.1143 18.7786 19.8247 14.0853
 10.9355 -0.4422 15.5881 24.8732 25.8554 27.4978  22.333 32.9206 -63.173 -59.213 32.9548 -3.7482 22.6964 -4.0503 -72.313 -60.829 49.4118 66.3411 53.6976 160.842 83.9354 6.03479 21.1003 20.3696 20.1353 18.7497 19.8417  14.096
 11.4112 -1.7497 14.6493 25.8611 27.0084  29.059 24.7046 33.3918 -61.162 -57.551   33.84 -5.3019 24.1562 -4.8682 -69.055 -58.264 50.2357  67.476 55.4359 150.291 58.5618 1.92825 21.0429 20.3774 20.1391 18.7247 19.8561 14.1066
  12.473 -2.8059 13.9317 26.6887 26.9754 29.9573 25.6932 32.8185 -58.533 -55.633 34.5703 -6.7161 25.6187 -5.8488 -65.783 -55.976 51.0997 68.0081 56.4303 132.471 26.8853 -0.7989 21.0062 20.3868 20.1191 18.7022 19.8716 14.1171
 13.9512 -3.5864 13.4107  27.364  25.719 30.2947 25.2672  31.346 -55.555 -53.643  35.012 -7.9917 27.0082 -6.9966 -62.683 -53.955 52.0173 68.0548 56.5905  107.63 -8.7087 -1.6698  20.999  20.399 20.0845 18.6817 19.8941 14.1274
 15.6384 -4.0552 12.9927 27.9582 23.3122 30.2479 23.4916 29.1767 -52.489 -51.776 35.0937 -9.0985  28.251 -8.2493 -59.856 -52.144 52.9747   67.73 55.8289 76.1529 -45.727 -0.5339  21.017 20.4141 20.0491 18.6653 19.9246 14.1375
 17.3677 -4.1865 12.5489 28.5765 19.9371 30.0102 20.5236 26.5215 -49.546 -50.188 34.8177 -9.9822 29.2867 -9.5024 -57.335 -50.481 53.9189 67.1137 54.0908 37.9417 -83.243 2.38466 21.0533 20.4331 20.0177 18.6576 19.9554 14.1476
 19.0395 -4.0007 11.9738 29.3027 15.8856 29.7541 16.6082 23.5914 -46.815 -48.929 34.2735 -10.593 30.1202 -10.669 -55.067 -48.898 54.7635 66.2566 51.4135 -6.8844 -121.67  6.5152 21.1061  20.456 19.9886 18.6617 19.9756 14.1575
 20.5742 -3.5697 11.2278 30.1651 11.5195 29.6268 12.0505  20.606 -44.242 -47.895 33.6228   -10.9 30.8562 -11.714 -52.914 -47.284 55.4034 65.1907 47.9381 -56.047 -160.17  11.082 21.1761 20.4772  19.963 18.6773  19.982 14.1673
 21.8645 -2.9962 10.3381 31.1411 7.18084 29.7471  7.1474 17.7788 -41.696 -46.883 33.0333 -10.895 31.6533 -12.614 -50.716 -45.478 55.7249 63.9102 43.8453 -104.38 -194.71  15.353 21.2573 20.4868 19.9481 18.7016 19.9831 14.1769
 22.7953 -2.3851 9.37352 32.1735 3.10036  30.194 2.11673 15.2848 -39.081 -45.695 32.6108 -10.584 32.6338 -13.298 -48.379 -43.303 55.6263 62.3526 39.2815 -146.12 -219.68 18.8633 21.3367 20.4799 19.9506 18.7335 19.9915 14.1864
 23.3072 -1.8306 8.43252 33.1706 -0.6467 30.9812 -2.9274 13.2265 -36.377 -44.229 32.3952 -10.003  33.839 -13.617 -45.901 -40.645 55.0448 60.4105  34.334 -178.08 -231.14 21.4776 21.4079 20.4614   19.97 18.7749 20.0134 14.1959
 23.4512 -1.4082 7.64401 34.0041 -4.1103 32.0313 -7.9332  11.614 -33.607 -42.518 32.4027 -9.2283 35.2458 -13.408 -43.332 -37.499 53.9842 57.9721 29.0585 -200.86 -228.66 23.2881 21.4801 20.4424 19.9984 18.8288 20.0456 14.2051
 23.3822 -1.1437 7.14667 34.5377 -7.3813 33.1898 -12.834 10.3922  -30.79 -40.669  32.638 -8.3583  36.793 -12.578 -40.706 -33.948 52.5218 54.9777 23.5297 -216.86 -214.24   24.46 21.5701 20.4305 20.0279 18.8974 20.0815 14.2143
 23.2853 -0.9798 7.03695 34.6812 -10.505  34.287 -17.478 9.51882  -27.89 -38.763 33.0884 -7.4476 38.4098 -11.139 -37.989 -30.104 50.7775 51.4692 17.8798 -227.27 -189.82 25.1435 21.6883 20.4253 20.0565 18.9818 20.1177 14.2234
 23.3126 -0.7773 7.31915 34.4369 -13.434 35.1979 -21.603 9.03707 -24.791  -36.77 33.7523 -6.4595 40.0763 -9.1664 -35.074 -26.053 48.8775 47.6066 12.3105 -231.59  -156.7 25.4708 21.8314 20.4222 20.0843 19.0807 20.1544 14.2323
 23.5622 -0.3615 7.89926 33.9011 -16.014 35.8581 -24.861 9.08018 -21.331 -34.577  34.668 -5.2859 41.8815 -6.7678 -31.813 -21.863  46.941  43.632 7.07755 -229.96 -117.32 25.5621 21.9901 20.4198 20.1076 19.1873 20.1897 14.2411
  24.073 0.42462 8.63006  33.221 -18.012  36.252 -26.878  9.8147 -17.352 -32.048 35.8921  -3.816 43.9904 -4.0811 -28.053 -17.587 45.0792 39.8064 2.46612  -224.3 -76.064  25.519  22.158 20.4214 20.1198 19.2884 20.2164 14.2498
 24.8451 1.68635 9.37221  32.538 -19.176 36.4123 -27.326 11.3879 -12.751 -29.077  37.467 -2.0046 46.5405 -1.2367 -23.681 -13.264  43.389 36.3622 -1.2354 -216.28  -36.87 25.4339 22.3297 20.4292 20.1201 19.3685 20.2263 14.2584
   25.87 3.45653 10.0315 31.9506 -19.306  36.432 -26.004  13.913 -7.4982 -25.572 39.4154 0.10049 49.5705 1.70483 -18.646 -8.8815 41.9301 33.4813 -3.7855 -204.99 -1.0457 25.3903 22.4905 20.4416 20.1167 19.4162 20.2189 14.2669
 27.1442 5.70713 10.5628 31.5056 -18.313  36.453 -22.881 17.4555 -1.6449 -21.444 41.7328 2.39074 53.0147 4.78321 -12.959 -4.3558 40.7131 31.2801 -5.0467 -187.62 31.7406 25.4193 22.6184 20.4569 20.1207 19.4296  20.203 14.2752
 28.6664 8.36114 10.9612 31.2055 -16.226 36.6116 -18.103 21.9859  4.6803 -16.652 44.3732 4.73744 56.7611   8.097 -6.6712 0.43098 39.7131 29.7853 -5.0178 -162.73 61.4564  25.476 22.6977 20.4786 20.1372 19.4154 20.1904 14.2835
 30.4095 11.2638 11.2617 31.0102  -13.16 36.9801 -11.958 27.3349 11.2892 -11.246 47.2588 7.00116 60.7211 11.6912 0.13024 5.56316 38.8985 28.9232 -3.8322 -132.34 87.0805 25.4961 22.7237 20.5149  20.163 19.3833 20.1877 14.2917
 32.2819 14.1653 11.5394 30.8364 -9.2788 37.5539 -4.8326 33.2129 17.9643 -5.3645 50.2837 9.03673 64.8205 15.4878 7.34683 11.0654 38.2544 28.5478 -1.7253 -100.68 107.243 25.4609  22.696 20.5712 20.1942 19.3423 20.1932 14.2997
  34.116 16.7511 11.8916 30.5767 -4.7646 38.2822 2.84223 39.2843 24.4813 0.81339 53.2897 10.7006 68.9288 19.3585 14.8769 16.9248  37.766 28.4788 1.00073 -70.567 121.455 25.3867 22.6166 20.6425 20.2333 19.2984 20.2009 14.3077
 35.6958 18.7032  12.407 30.1335 0.20028 39.1012  10.639 45.2414 30.6277 7.11799 56.0705 11.8627 72.8485 23.2374 22.6137 23.1155 37.3919 28.5272 4.00507 -41.287 130.407 25.2782 22.4926 20.7179 20.2859 19.2564 20.2063 14.3155
 36.8319 19.7906 13.1392 29.4494 5.46216 39.9343 18.1934  50.832 36.2242 13.4216 58.4278 12.4371 76.3793 27.1137 30.4331 29.5868 37.0674 28.5241 6.95366 -10.381 135.091 25.1169   22.34 20.7897 20.3503 19.2191 20.2087 14.3232
 37.4641 19.9526 14.0874 28.5224 10.9148 40.6728 25.2558 55.8437 41.1454 19.6419 60.2312 12.4109 79.3714 30.9343  38.177 36.2321 36.7312 28.3517 9.58563 22.9207 136.123 24.8901 22.1772 20.8564 20.4153 19.1875 20.2101 14.3309
 37.6909 19.3052 15.1858 27.4186 16.4911 41.1897 31.7067 60.0919 45.3347 25.7401  61.427 11.8433 81.7198 34.5713 45.6418 42.8868 36.3435 27.9676 11.7563 56.3532 133.978 24.6186 22.0177 20.9152  20.469 19.1606 20.2134 14.3384
 37.6788 18.0683 16.3046 26.2785  22.114  41.394 37.5182 63.4411 48.8065 31.7245  61.987 10.8516   83.33 37.8782 52.5897 49.3627  35.881 27.4001 13.4217 86.5134 129.814 24.3466 21.8694 20.9594 20.5085 19.1386 20.2213 14.3459
 37.5673 16.5035 17.2781 25.2894 27.6436 41.2734 42.6905 65.8282 51.6311 37.6506 61.8753 9.61597 84.1205 40.7459 58.7913 55.4921 35.3281 26.7118 14.5973  111.01 125.398 24.1136 21.7395 20.9841 20.5401 19.1243 20.2346 14.3532
 37.4652 14.9047 17.9564 24.6253 32.8782 40.8896 47.2277 67.2701 53.9265 43.6152 61.0965 8.38217 84.0675 43.1163 64.0906 61.1503 34.6827 25.9639 15.3496 128.697 122.023 23.9463 21.6395 20.9926 20.5697 19.1224 20.2513 14.3605
 37.4766 13.5751 18.2442  24.398 37.6022 40.3547 51.1749 67.8656 55.8828 49.7461 59.7472 7.41334 83.2416 44.9675 68.4636 66.2556 33.9713 25.2218 15.8281 139.057 119.804 23.8495 21.5833 20.9941  20.598  19.136 20.2668 14.3676
 37.6818 12.7583 18.1169 24.6314 41.6301 39.8144  54.646 67.7933 57.7832 56.1797 57.9936 6.91385 81.8116 46.3025  72.045 70.7712 33.2623 24.5846 16.2707 142.246 118.049 23.7879 21.5798 20.9942 20.6235 19.1635 20.2767 14.3747
 38.1017 12.5803 17.6233  25.258 44.8333 39.4305 57.8006  67.291  59.974 63.0293  56.009 6.97569 80.0097 47.1621 75.1105 74.7244 32.6618 24.1794 16.9398 139.938  116.44 23.6909 21.6278 20.9886 20.6497 19.1989 20.2786 14.3817
 38.6861 13.0407 16.8746 26.1443 47.1585 39.3531 60.8021 66.6195 62.7851  70.345 53.9286 7.56131 78.0784 47.6301 78.0065 78.2211   32.29 24.1261  18.038 135.278 115.419 23.4791 21.7187 20.9696 20.6839 19.2348 20.2728 14.3886
 39.3283 14.0336 16.0218 27.1277 48.6356 39.6739 63.7811 65.9987  66.433 78.0632 51.8386  8.5098  76.226 47.7893 81.0483 81.4123 32.2591 24.5133  19.661 131.291  115.25 23.0972 21.8441 20.9373 20.7274 19.2664 20.2601 14.3954
 39.9001 15.3842 15.2307 28.0397 49.3706 40.3688 66.8031   65.52 70.9602 85.9614 49.8079   9.568 74.5928 47.6753  84.443 84.3909 32.6566 25.3871 21.7925 129.237 115.168 22.5391 21.9987 20.9009 20.7712 19.2922 20.2417 14.4021
 40.2859 16.8962 14.6476 28.7334 49.5324 41.2903 69.8482 65.0945 76.2312 93.6581 47.9269 10.4646 73.2443 47.2877 88.2676 87.1013 33.5468 26.7554 24.3247 128.472 113.577 21.8492 22.1748 20.8694 20.8036 19.3121 20.2218 14.4087
 40.3801 18.3802 14.3626 29.1163 49.3387 42.2378  72.816 64.4964 81.9625 100.683 46.3004 10.9927 72.2254 46.6331 92.4945 89.3634 34.9651 28.5905 27.0816 128.023 109.193 21.0979 22.3566 20.8448 20.8211  19.326 20.2072 14.4152
 40.0793 19.6596  14.401 29.1612 49.0361 43.0353 75.5544 63.4773 87.7723 106.587  45.012 11.0502 71.6174  45.748 97.0287 90.9776 36.8969 30.8166 29.8303 127.741 101.511 20.3441 22.5197 20.8258 20.8261 19.3342 20.2049 14.4217
 39.3235 20.5769 14.7394 28.8913 48.8628 43.5598 77.8971 61.8678 93.2488  111.03 44.1112 10.6275 71.5344 44.6771 101.731 91.8145 39.2727 33.3074  32.311 127.722 90.1888 19.5992  22.642 20.8135 20.8198 19.3395  20.218  14.428
 38.1541  21.005 15.3245  28.362 48.9946  43.721 79.6902 59.5947 98.0148 113.812  43.614 9.76224 72.0674 43.4376  106.43 91.8304 41.9893 35.9046 34.2861 127.293 74.6824 18.8158 22.7167 20.8127 20.7997 19.3454  20.244 14.4343
 36.7067  20.869 16.0908 27.6474 49.5021 43.4282 80.8031 56.6252 101.756 114.847 43.5075 8.51266 73.2176 42.0132 110.929 91.0177 44.9345 38.4375 35.5728 125.081 54.8313   17.92  22.751 20.8281 20.7642 19.3521 20.2779 14.4405
 35.1346 20.1608 16.9821  26.818 50.3634 42.5832  81.149 52.9336  104.23 114.163 43.7584 6.96527 74.8613 40.3587 115.027 89.3776 47.9932 40.7357 36.0476 120.275 32.0923  16.849 22.7536 20.8585 20.7171 19.3573 20.3166 14.4467
 33.5502 18.9336 17.9611 25.9196 51.5178 41.1233 80.7217 48.5482 105.319 111.935 44.3152 5.24487 76.7733 38.3968 118.561 86.9713 51.0417 42.6442 35.6603 113.222 9.63107 15.5729 22.7246 20.8966 20.6667 19.3615 20.3566 14.4527
 32.0371 17.3037 19.0078 24.9643  52.905 39.0694 79.6143 43.6054  105.08 108.501 45.1289 3.50042   78.71 36.0498 121.464  83.964 53.9612 44.0447 34.4655 104.385 -9.5715 14.1046   22.66 20.9365 20.6186 19.3705 20.3905 14.4587
 30.6794 15.4402 20.1259 23.9293   54.47 36.5247 77.9967  38.342 103.748 104.286 46.1937 1.86084 80.5123 33.3074 123.796  80.598 56.6707 44.8765 32.6369 93.1138 -24.913 12.4892  22.565 20.9781 20.5725 19.3905 20.4092 14.4646
 29.5711 13.5338  21.346 22.7632 56.1629 33.6478  76.072 33.0492  101.67 99.7135 47.5579  0.4024 82.1599  30.284 125.709 77.1404 59.1558 45.1538 30.4445 77.7477 -38.414 10.7913 22.4581 21.0226 20.5263 19.4238 20.4089 14.4704
 28.7956  11.771 22.7093   21.41 57.9565 30.6449 74.0454 28.0462 99.2433 95.1653 49.2935 -0.8404 83.7591 27.2217 127.404 73.8714 61.4592 44.9697 28.2068 57.2402 -52.387  9.0955 22.3619 21.0662 20.4828 19.4694 20.3942 14.4761
 28.3701 10.3092 24.2356 19.8446 59.8725 27.7711 72.1296  23.672 96.8758 90.9956 51.4547 -1.8448   85.48 24.4301 129.109 71.0959 63.6283 44.4707 26.2417 32.1745 -67.249 7.48448   22.29 21.0996 20.4506 19.5245 20.3762 14.4818
  28.202 9.24752 25.8932 18.1008  61.989 25.2995  70.561 20.2449 94.9498 87.5117 54.0394 -2.5786 87.4808 22.2084 131.048  69.106 65.6727 43.8202 24.8295 3.79429 -81.811 6.01212 22.2449 21.1165 20.4375 19.5851 20.3659 14.4874
 28.1167  8.6127  27.587 16.2786 64.4151 23.4548 69.5885 17.9874 93.7679 84.9054  56.968 -2.9995 89.8724 20.8065 133.392 68.1018 67.5598 43.1746 24.1897 -27.547 -94.924 4.70437 22.2261 21.1184 20.4436 19.6466 20.3704 14.4929
 27.9419 8.37425 29.1745 14.5285 67.2428 22.3605 69.4311 16.9706 93.5036 83.2064 60.0948 -3.0621 92.7014 20.4189 136.208 68.1479 69.2457 42.6718 24.4708 -62.478 -106.15 3.55876 22.2335 21.1118 20.4617 19.7035   20.39 14.4983
 27.5636 8.46981 30.5029 13.0173 70.4904 22.0255 70.2299 17.1174 94.1887  82.309 63.2474 -2.7267 95.9233 21.1465 139.445 69.1819 70.7053   42.42  25.742 -100.36 -114.23 2.54842 22.2644 21.1006 20.4847 19.7491 20.4194 14.5037
 26.9335 8.82316 31.4509 11.8826 74.0663 22.3687 72.0156 18.2557 95.7335 82.0445 66.2731 -1.9656 99.4069 22.9388 142.965 71.0367 71.9338   42.48 27.9632 -137.42 -115.68 1.64301 22.3084  21.083 20.5114 19.7807 20.4529  14.509
 26.0789 9.36361 31.9608 11.1964 77.7667 23.2448 74.6834 20.1762 97.9384 82.2395 69.0705 -0.7616 102.967  25.594 146.548 73.4686 72.9353 42.8494 30.9501 -168.52 -106.78 0.80977 22.3484 21.0554  20.543 19.8033 20.4872 14.5143
 25.1126 10.0498 32.0596 10.9407 81.2958 24.4411 77.9742 22.6475 100.498 82.7264 71.5963  0.8731 106.396 28.7926 149.894 76.1865 73.7162 43.4523 34.3683  -190.7  -86.98  0.0003 22.3732 21.0185 20.5765 19.8257 20.5193 14.5194
 24.1914 10.8843 31.8621 11.0033  84.306 25.6777 81.4937 25.4053 103.029  83.317 73.8437  2.8553 109.491 32.1258 152.633 78.8722 74.2937  44.144 37.7747 -204.27  -59.31 -0.8508 22.3861  20.978 20.6049 19.8529 20.5441 14.5245
 23.4417  11.891 31.5283 11.2266 86.4623 26.6555 84.7773 28.1637 105.134 83.7837 75.8107 5.01712 112.065 35.1759 154.401 81.2019 74.6975 44.7367 40.6978 -210.51 -27.355  -1.818  22.397 20.9405 20.6247 19.8838 20.5572 14.5296
 22.9258 13.0718 31.1895 11.4858 87.5149 27.1541 87.3795 30.6691  106.47 83.8943 77.4899 7.14749 113.957 37.6475 154.908 82.8922 74.9431 45.0426 42.7338 -209.07 7.03867 -2.9646  22.409 20.9082 20.6414 19.9134 20.5596 14.5346
 22.6626 14.3945 30.9058 11.7306 87.3584 27.1236 88.9718 32.7704 106.806 83.4964 78.8914 9.07003 115.063 39.4533 154.007 83.7781 75.0201 44.9364 43.6369 -198.37 42.1634 -4.3167 22.4157 20.8795 20.6649 19.9368 20.5561 14.5395
  22.647 15.7942 30.6761 11.9691 86.0574 26.7035 89.4267 34.4564  106.07 82.5804 80.0501 10.6902 115.381 40.6942 151.733 83.8681 74.9214 44.4135 43.3719 -178.62 74.0972 -5.8493 22.4111 20.8549 20.7001 19.9507 20.5505 14.5443
 22.8399 17.1617  30.462   12.24 83.8191 26.1508 88.8298 35.8216 104.333 81.2528 80.9877 11.9873 114.999 41.5504 148.284 83.3068 74.6688 43.5973 42.1098 -153.54 97.6908 -7.4858 22.3929 20.8373 20.7443 19.9536 20.5441 14.5491
  23.152 18.3362 30.1997 12.6025 80.9222 25.7179 87.3963 36.9779 101.725 79.6379 81.6796 12.9876 114.022 42.1615 143.928 82.2673  74.287 42.6811 40.1568 -128.84 109.578  -9.117 22.3579 20.8284 20.7939 19.9445 20.5381 14.5538
 23.4435 19.1235 29.8156 13.1191 77.6489 25.5582 85.3566 37.9903 98.3424 77.8174 82.0581 13.7295 112.523 42.5934 138.909  80.882  73.739 41.8421 37.8412 -108.51 109.468 -10.638 22.3019 20.8238 20.8503 19.9228 20.5354 14.5585
 23.5466 19.3446 29.2614 13.8201  74.238 25.7167 82.8931 38.8975 94.2394 75.8595 82.0241 14.2405 110.533 42.8766   133.4 79.2609 72.9066  41.195 35.4351  -92.59 98.9429 -11.975 22.2232 20.8172 20.9177  19.889 20.5382 14.5631
 23.2886 18.8809 28.5436 14.6764 70.8499  26.172 80.1347 39.7602 89.4693 73.8605 81.4583 14.5396  108.06 43.0001 127.498 77.5191 71.6444 40.7997 33.1586 -78.845 79.9373 -13.089 22.1273 20.8078 20.9939 19.8465 20.5444 14.5676
 22.5186 17.6927 27.7247 15.6059 67.5575 26.8543 77.1657 40.6493 84.1175  71.928 80.2652 14.6406 105.099 42.8606 121.223 75.7473  69.856 40.6776 31.2071 -65.977 54.3137  -13.94 22.0237 20.8019 21.0682 19.8012 20.5506 14.5721
  21.172 15.8339 26.8995 16.5012 64.3637 27.6437 74.0333 41.5974 78.2825 70.1275 78.4294  14.547 101.647 42.2926 114.511 73.9759 67.5382  40.813 29.7396 -54.602 24.5724 -14.471 21.9177 20.8074 21.1296 19.7599  20.556 14.5765
  19.329 13.4536 26.1683 17.2596 61.2357 28.4008  70.765 42.5956 72.0398 68.4635 76.0311 14.2506 97.7298 41.1831 107.245 72.2006 64.7703 41.1581 28.8458 -44.882 -4.7462 -14.633 21.8092 20.8249 21.1767  19.729 20.5626 14.5809
 17.2043 10.7769 25.6156 17.8072  58.157 29.0438  67.407 43.6489 65.4446 66.9254 73.2298 13.7458 93.4331 39.5294 99.3345  70.456 61.6863 41.6662  28.558  -34.51 -27.121 -14.411 21.6978  20.849 21.2159 19.7116 20.5726 14.5852
 15.0852 8.08604 25.2886 18.1174 55.1868 29.6258 64.0766 44.8291 58.5812 65.5599 70.2402 13.0535 88.9097 37.4159 90.7976 68.8563 58.4711 42.3482  28.923 -20.242 -36.897 -13.795 21.5896 20.8766 21.2505 19.7075 20.5852 14.5895
 13.2483 5.68067 25.1665 18.2302 52.4697 30.3289 60.9826 46.2567 51.5937 64.4738 67.2987 12.2271 84.3541 35.0057 81.7876 67.5421 55.3546 43.2914 30.0396 -1.0888 -32.584 -12.755  21.498  20.909 21.2759 19.7144 20.5966 14.5937
 11.8678 3.79838 25.1403  18.259 50.1786 31.3667 58.3728 48.0139 44.6525 63.7499 64.6235 11.3229 79.9915 32.5224 72.5459 66.5805 52.5656 44.5955 31.9958 20.8043 -17.262 -11.256  21.439 20.9461 21.2849 19.7284 20.6032 14.5978
 10.9574 2.53328 25.0386 18.3655 48.4395 32.8868 56.4462 50.0763 37.9004 63.3761 62.3702 10.3479 76.0533 30.1665  63.334 65.9225 50.2634 46.2829 34.7776 42.5022 4.23026 -9.2632 21.4255   20.98  21.278 19.7469 20.6042 14.6019
 10.3945 1.82102 24.6896 18.7107 47.2998 34.9274 55.2981 52.3061 31.4287 63.2326 60.6005 9.24657 72.7054 28.0504 54.3927 65.4104 48.5085 48.2715 38.2402 62.5484 27.9056 -6.7567 21.4595 21.0003 21.2633 19.7694 20.6004 14.6059
  10.006 1.50143 23.9947  19.392 46.7531  37.406 54.9296 54.4804  25.288 63.1058 59.3002  7.9468 69.9981 26.2028 45.9353 64.7924 47.2939 50.4224 42.1447 80.7009 50.8809 -3.7499  21.533 21.0029 21.2457 19.7963 20.5908 14.6099
  9.6425 1.39791 22.9782 20.3893 46.7857 40.1289 55.3003  56.341 19.5186 62.7329 58.4329 6.40319    67.9  24.595  38.156 63.7756  46.588 52.6034 46.2166 96.4285  70.551 -0.2927 21.6356 20.9922 21.2207 19.8252 20.5739 14.6139
 9.21315  1.3745 21.7781 21.5666 47.3882 42.8291 56.3616 57.6484 14.1665 61.8675 57.9567 4.61541 66.3712 23.1781 31.2288  62.111  46.349 54.7187 50.1986 108.481 84.4431 3.52755 21.7553 20.9752  21.184 19.8492 20.5503 14.6177
 8.70123 1.37011 20.5899 22.7319 48.5287 45.2197 58.0405  58.232 9.26998 60.3285 57.7991 2.63516 65.4128 21.9312 25.2794 59.6537 46.5087 56.6954  53.874  116.16 91.0625 7.58476 21.8774 20.9553 21.1428 19.8611 20.5224 14.6216
 8.16515 1.41418 19.6034 23.7026 50.1168 47.0561 60.1933 58.0255 4.83713 58.0281 57.8542 0.56542 65.0309 20.9033 20.3401 56.3802 46.9646 58.4494 57.0606 120.171 90.1592 11.7375 21.9848 20.9353 21.1124 19.8581 20.4942 14.6254
 7.71691 1.62136 18.9564 24.3479 51.9755 48.1827 62.5723 57.0595 0.83316 54.9747 58.0195 -1.4555 65.1426 20.2219 16.3089 52.3705 47.6015 59.8606 59.5957   121.7 81.9594 15.8506 22.0658 20.9215 21.1011 19.8427 20.4684 14.6291
 7.50054 2.15564 18.7081 24.6123 53.8419 48.5473 64.8467 55.4043 -2.8171 51.2263 58.2245 -3.2946 65.5619 20.0284 12.9593 47.7403 48.3213 60.7771 61.3438 121.049 66.6795 19.7911 22.1194 20.9223  21.105 19.8208 20.4456 14.6328
 7.67812 3.15836 18.8456 24.5081 55.4237 48.1886 66.6903 53.1211 -6.2027 46.8293 58.4243 -4.8772 66.0924 20.3728 10.0172  42.561 49.0608 61.0536 62.2369 117.525 45.0453 23.4187 22.1517 20.9415 21.1162 19.7993 20.4272 14.6364
 8.37746 4.64792 19.3214 24.0723 56.5037 47.2125 67.8898 50.2696 -9.3797  41.825   58.58 -6.2325 66.6168 21.1492 7.26508 36.8516  49.782 60.5904 62.3052 110.849 19.5138 26.5889 22.1707 20.9748 21.1324 19.7832 20.4169   14.64
 9.61272 6.46333 20.0909 23.3273 57.0177 45.7665 68.3972  46.946 -12.343 36.3077 58.6411 -7.4983 67.0898 22.0966 4.60137 30.6407 50.4473 59.3457 61.6546 101.973 -5.6686 29.1795 22.1787 21.0132 21.1548 19.7768 20.4182 14.6436
 11.2613 8.31506 21.1195 22.2854 57.0442 44.0045 68.2911 43.2866 -15.045 30.4364 58.5356 -8.8522 67.4616 22.8627 2.02547 24.0086 51.0121 57.3355 60.4145 92.0208 -26.552 31.1358 22.1716 21.0529 21.1801 19.7847  20.432 14.6471
  13.122   9.884 22.3655 20.9774 56.7292   42.04 67.6939 39.4272 -17.433 24.3772 58.1903 -10.429 67.6402 23.1224 -0.4215  17.062  51.436 54.6299 58.7009 80.7681 -41.986 32.4816 22.1471 21.0981  21.199 19.8107 20.4542 14.6505
 14.9972 10.8977 23.7589 19.4759 56.2133 39.9119 66.7076  35.461 -19.482 18.2485 57.5906 -12.279 67.5211 22.6868 -2.7181 9.89935 51.7008  51.353 56.6049 66.5958 -54.002 33.2847 22.1089 21.1544  21.203 19.8547  20.478 14.6539
 16.7448 11.1817 25.1915 17.8996 55.5858 37.5969  65.377 31.4235 -21.219 12.1183 56.8077 -14.356  67.039 21.5414  -4.896 2.60286 51.8218 47.6805 54.1715 48.2989 -65.296 33.6265 22.0606 21.2203 21.1945 19.9125 20.4982 14.6573
 18.2869 10.7032 26.5213 16.4019 54.8526 35.0602 63.6656 27.2987 -22.722 6.04044 55.9327 -16.502 66.1833 19.8207 -7.0346  -4.752 51.8387 43.8146 51.3682 26.3818 -76.757 33.5951 21.9968 21.2889 21.1858 19.9776 20.5134 14.6606
 19.5908 9.59828 27.5993 15.1428 53.9325 32.3019 61.4718 23.0456 -24.097 0.09647 55.0015 -18.456 64.9724 17.7533 -9.2095 -12.081 51.8045 39.9503 48.1004 2.04909 -87.802   33.28 21.9067 21.3566 21.1879 20.0433 20.5232 14.6639
 20.6691 8.14472 28.3171 14.2444 52.7157 29.3739 58.7153 18.6465 -25.412 -5.5801 54.0101 -19.892 63.4483 15.5929 -11.416  -19.27 51.7906 36.2615 44.3021 -24.611 -98.177 32.7591 21.7888 21.4254 21.2018 20.1049 20.5255 14.6671
 21.6053 6.67052 28.6391 13.7629 51.1456 26.3645 55.4298 14.1494 -26.658 -10.805 52.9654 -20.525 61.7012 13.5451 -13.542 -26.149 51.8901 32.8953 40.0348 -54.702 -108.27 32.0969 21.6572 21.4969 21.2202 20.1605 20.5165 14.6703
 22.5422 5.45754 28.5922 13.7007 49.2402 23.3713 51.7686 9.67585 -27.791 -15.373 51.8952 -20.212 59.8519 11.7078 -15.449 -32.487 52.1917 29.9551 35.5051 -87.978    -117 31.3515  21.534 21.5674 21.2379 20.2099 20.4941 14.6735
 23.6124 4.70779 28.2338 14.0312 47.0533 20.4808 47.9329 5.40261 -28.796 -19.096  50.825 -18.983 57.9878 10.0728 -17.076 -38.021 52.7427 27.4866 30.9982 -120.83 -120.43 30.5757 21.4358 21.6296 21.2562 20.2537 20.4601 14.6766
 24.8809 4.55914  27.633 14.7009 44.6334 17.7575 44.0966  1.5267 -29.714 -21.851 49.7602 -16.964 56.1475 8.61415 -18.478 -42.505 53.5463 25.4963 26.7966 -148.12 -114.26 29.8361 21.3669 21.6776 21.2798 20.2933 20.4199 14.6797
 26.3396 5.08106 26.8689 15.6221 42.0124 15.2347 40.3679 -1.7831 -30.625 -23.604 48.6837 -14.303 54.3722 7.37924 -19.785 -45.772 54.5806 23.9843 23.1351  -166.8 -97.446 29.2371 21.3257 21.7089 21.3096 20.3294 20.3784 14.6827
 27.9237 6.24808 26.0204 16.6901 39.2024 12.9144 36.7729 -4.4403 -31.627 -24.436 47.5636 -11.139 52.6864 6.49161 -21.139 -47.774 55.8079 22.9532 20.1793 -177.09 -72.592 28.8919  21.311 21.7246 21.3411 20.3594 20.3387 14.6857
 29.4988  7.9244 25.1398 17.8245 36.1954 10.7853 33.2592 -6.4669 -32.837 -24.536 46.3422 -7.6188  51.008 6.06964 -22.656  -48.58 57.1642 22.3742 17.9988  -180.3 -42.727  28.853 21.3194 21.7247 21.3703  20.379 20.3034 14.6887
 30.8364 9.87901 24.2283 18.9975 32.9666 8.84291 29.7146 -7.9879 -34.376 -24.155 44.9188 -3.9148 49.1572 6.14121 -24.415 -48.357 58.5378 22.1342 16.5279 -176.22 -9.1095 29.0824 21.3387 21.7065  21.401 20.3869 20.2793 14.6916
 31.6546 11.8494 23.2358 20.2349 29.4622  7.0874 25.9867 -9.2175 -36.352 -23.584 43.1602 -0.2081 46.9662 6.65096 -26.484 -47.352  59.774 22.0193 15.5493 -163.75 26.9375 29.4998 21.3501 21.6707 21.4406 20.3871 20.2765 14.6945
 31.7317 13.6266 22.0837 21.5951 25.5989 5.51208  21.925 -10.408 -38.824 -23.108 40.9478  3.3568 44.3517 7.54643 -28.917 -45.864  60.724 21.7688 14.7605 -143.82 61.6012 30.0392  21.343  21.626 21.4893 20.3864 20.3015 14.6973
 31.0121 15.1115 20.7024 23.1353 21.3149 4.09805 17.4623 -11.761 -41.731 -22.928 38.2451 6.69506 41.3209 8.81687 -31.705 -44.158 61.3037  21.181  13.903 -120.82 89.7911 30.6467 21.3247 21.5851 21.5357 20.3884 20.3506 14.7001
 29.6342   16.32 19.0618 24.8821 16.6455 2.80616 12.6834 -13.361 -44.851 -23.085  35.144 9.76662 37.9711 10.4298 -34.706  -42.41 61.5073 20.1858 12.8497 -100.49 108.352 31.2581 21.3116 21.5557 21.5662 20.3928 20.4121 14.7029
  27.871 17.3441 17.1841 26.8132  11.767 1.57432 7.82889 -15.185 -47.832 -23.471 31.8545 12.5457 34.5048 12.2651 -37.628 -40.704 61.3747 18.8298 11.5933 -86.109 117.335 31.7936 21.3108 21.5347 21.5784 20.3993 20.4754 14.7056
 26.0553 18.3196 15.1473 28.8497 6.98605 0.33934 3.24346 -17.134 -50.276  -23.89 28.6609 15.0145 31.2141 14.1361 -40.089 -39.046 60.9729  17.219 10.1993 -76.721 118.662 32.1741 21.3142 21.5142  21.579 20.4094 20.5357 14.7083
 24.5421 19.4149 13.0874  30.856  2.6859 -0.9362 -0.7024 -19.078 -51.839 -24.138 25.8808 17.1654 28.4098 15.8309 -41.699 -37.389 60.4097 15.4715 8.77021 -69.282 114.422 32.3641 21.3115 21.4908 21.5716 20.4241 20.5911  14.711
 23.6785 20.8011 11.1844 32.6586 -0.7596 -2.2606  -3.687 -20.908 -52.311 -24.093 23.8294 18.9803 26.3576 17.1239  -42.15 -35.672 59.8296 13.6797 7.41064  -62.12 106.213 32.3917 21.2994  21.467 21.5539 20.4403 20.6381 14.7136
 23.7382 22.5855  9.6152 34.0946 -3.0772 -3.6092 -5.4891 -22.574 -51.643 -23.763 22.7708 20.4121 25.2488 17.8327 -41.261 -33.872 59.3675  11.893 6.19634  -55.79 95.4767 32.3117 21.2774 21.4455 21.5244 20.4525 20.6706 14.7162
 24.8311 24.7373 8.49592 35.0679 -4.1526 -4.8924 -6.0104 -24.072 -49.906 -23.264  22.853 21.3847  25.173 17.9239 -38.977 -31.994 59.0896 10.1427  5.1607  -50.49 84.1768 32.1868 21.2468 21.4246  21.491 20.4577 20.6834 14.7188
 26.8457 27.0694 7.84443 35.5835 -4.0342 -5.9356 -5.2692 -25.422 -47.233 -22.751 24.0593  21.816 26.0888 17.5438 -35.359 -30.051 58.9755 8.48883  4.2991 -43.967 74.4557 32.1106 21.2125    21.4 21.4667 20.4586 20.6758 14.7213
 29.4771 29.3143 7.58148 35.7373 -2.8932 -6.5169 -3.3777 -26.656 -43.803 -22.367 26.2222 21.6661 27.8185 16.9268 -30.554 -28.042  58.959 7.04292 3.59352 -33.139 67.5046 32.1968  21.186 21.3709 21.4559 20.4611 20.6502 14.7238
 32.3336 31.2475 7.56775 35.6715 -0.9828 -6.4472 -0.5261 -27.807 -39.831 -22.212 29.0879  20.981 30.0725  16.279 -24.764 -25.958 58.9868 5.93543  3.0318 -17.327 63.0814 32.5216 21.1803 21.3423 21.4503 20.4693 20.6084 14.7263
 35.0614 32.7529 7.65741 35.5217 1.38467 -5.6529 3.01601  -28.91 -35.578 -22.355 32.3747 19.8915 32.5036  15.746 -18.244 -23.792 59.0376 5.24299 2.58851 1.05914 60.1203 33.1013 21.2017 21.3198 21.4408 20.4807 20.5514 14.7287
 37.4341 33.8093 7.73928 35.3844 3.85899 -4.2231 6.89844 -30.001  -31.35  -22.85 35.8091 18.5708  34.777 15.4466 -11.303 -21.558 59.0987 4.92433 2.18017 19.1064 58.1372 33.9097 21.2465 21.3035 21.4269 20.4878 20.4805 14.7311
 39.3909  34.474 7.74962 35.3121  6.0879  -2.393 10.7095 -31.123 -27.479 -23.742  39.162 17.2068 36.6236 15.4722 -4.3026 -19.314 59.1491 4.82222 1.65441 35.7255 57.7573 34.8876 21.3034 21.2908  21.414 20.4839 20.4005 14.7335
 41.0118 34.8797 7.66517 35.3249 7.76197 -0.4815 14.0242 -32.306 -24.257 -25.022 42.2841 15.9916 37.8845 15.8153 2.37551 -17.139 59.1748 4.72808 0.84165 51.1549 59.5772 35.9532 21.3621 21.2819 21.4036 20.4681 20.3187 14.7358
 42.4656 35.2088 7.49426 35.4175 8.65429 1.17213 16.4656 -33.537 -21.879 -26.605 45.1119 15.0939 38.5452 16.3206 8.36696  -15.09 59.1836 4.44389 -0.3773 65.0792 62.8057  37.031 21.4208 21.2824 21.3901 20.4442 20.2432 14.7381
 43.9821 35.6591 7.28041 35.5543 8.65067 2.26366  17.753 -34.747 -20.424 -28.344 47.6563 14.6242  38.725 16.7501 13.3778 -13.183 59.2009 3.81262 -2.0318 76.0379 65.1801 38.0667 21.4826  21.298 21.3685 20.4172 20.1816 14.7404
 45.8155 36.4045 7.11565 35.6571 7.77313 2.58447 17.7424 -35.798 -19.865 -30.055 50.0029 14.6166 38.6353 16.9218 17.2356 -11.393 59.2485 2.74094 -4.0495 82.9657 64.3369  39.005 21.5494  21.329  21.342 20.3917 20.1403 14.7426
 48.1512 37.5466 7.12725 35.6174 6.17316 2.07792 16.4578 -36.485 -20.073 -31.503 52.2862 15.0314 38.5274 16.8079  19.908 -9.6471 59.3303 1.22813 -6.2582 86.4517 58.7659 39.7616 21.6176 21.3693 21.3179 20.3726 20.1223 14.7449
 51.0294 39.0802 7.42663  35.338  4.0738 0.85328 14.0832  -36.57 -20.842  -32.41  54.621 15.7735 38.6096 16.5301 21.4647 -7.8226 59.4377 -0.6228 -8.4092 87.8353 47.5033 40.2409 21.6825 21.4138 21.2985 20.3626  20.124 14.7471
 54.3528 40.8851 8.06434 34.7691 1.68767 -0.8623 10.9063 -35.865 -21.921 -32.543 57.0489 16.7145  38.973 16.2758 22.0096 -5.8012 59.5595  -2.633 -10.237 87.4836  29.826 40.3698 21.7437 21.4622 21.2793 20.3614 20.1364 14.7492
 57.9386 42.7602 9.02073  33.918 -0.8365 -2.8009 7.24708 -34.299 -23.065 -31.796 59.5211 17.7241 39.5733 16.2074 21.6431 -3.5158 59.6878 -4.5988  -11.53 84.4713 5.85372 40.1128 21.8048 21.5148 21.2574 20.3683 20.1513 14.7514
 61.5565 44.4756 10.2218 32.8397 -3.4091 -4.7099 3.40835 -31.925 -24.063 -30.206 61.9073 18.6928 40.2607 16.4182 20.4901 -0.9438 59.8143 -6.3441 -12.181 78.2196 -22.128 39.4872 21.8668 21.5687 21.2388 20.3847 20.1644 14.7535
 64.9537 45.8192 11.5648 31.6199 -5.9538 -6.3827 -0.3486 -28.859 -24.748 -27.895  64.044 19.5362 40.8403 16.9538 18.7496 1.92709 59.9131 -7.7644   -12.2 69.6884 -49.569 38.5643 21.9231 21.6202 21.2338 20.4143 20.1752 14.7555
 67.9029 46.6587 12.9439 30.3532 -8.3588  -7.688 -3.8056 -25.247 -24.996     -25  65.816 20.2032 41.1409 17.8549  16.709 5.11083 59.9375 -8.8485 -11.682 60.3067 -71.927 37.4423 21.9675 21.6711 21.2454 20.4597 20.1832 14.7576
 70.2863 47.0071 14.2749 29.1149  -10.44 -8.5862 -6.7599 -21.238  -24.71 -21.641 67.2212 20.6868 41.0826 19.1433 14.7339  8.6165  59.838 -9.6696 -10.747 50.0847 -87.499 36.2284 22.0058 21.7284 21.2661 20.5198 20.1867 14.7596
 72.1516 47.0277 15.5173 27.9384 -11.934 -9.1235 -9.0004 -16.981 -23.807 -17.908 68.3726 21.0169 40.7357 20.7717  13.238  12.452 59.5921 -10.357 -9.4791 37.3361 -97.954 35.0356 22.0541 21.7956 21.2849  20.587 20.1848 14.7616
 73.6646 46.9558 16.6822 26.8156 -12.543 -9.4027 -10.321 -12.603 -22.212 -13.883 69.4297 21.2399 40.3134  22.627 12.6169 16.6302 59.2111 -11.074 -7.9187 20.7033 -105.69 33.9612  22.127 21.8654 21.2976 20.6494 20.1796 14.7636
 74.9838 46.9881 17.8113 25.7182 -12.015 -9.5225 -10.549  -8.188 -19.884 -9.6525 70.4962 21.3946 40.0904 24.5913 13.1657 21.1626 58.7143 -11.992 -6.0811 0.80491 -111.27  33.067 22.2245 21.9231 21.3081 20.6964  20.175 14.7655
  76.176 47.2157 18.9405 24.6266 -10.222 -9.5188 -9.5703 -3.7758  -16.83 -5.2962  71.556 21.5005 40.3318 26.5875 15.0319 26.0432 58.1056 -13.266 -3.9781 -20.802 -113.97  32.399 22.3338 21.9595 21.3181 20.7255 20.1738 14.7675
 77.2307 47.6299 20.0758 23.5459 -7.1979 -9.3647 -7.3555  0.6009 -13.109 -0.8922 72.4929 21.5456 41.2361  28.546 18.2205 31.2186 57.3741 -15.003 -1.6423 -43.849 -114.08 32.0007  22.445 21.9769 21.3213 20.7404 20.1772 14.7694
 78.1193 48.1656 21.1871 22.5088 -3.1286 -9.0074 -3.9795 4.87992 -8.8369 3.46531 73.1594 21.4802 42.8674 30.3429 22.6145 36.5555 56.5031 -17.241 0.85072 -69.693 -113.57 31.8838 22.5617 21.9807   21.31 20.7435 20.1869 14.7712
 78.8056 48.7202 22.2111  21.569 1.69405 -8.3743 0.37515 8.96806    -4.2 7.66337 73.4209 21.2296 45.1481 31.8155 27.9966 41.8501 55.4797  -19.92 3.37887 -98.724  -113.8 32.0088 22.6935 21.9706 21.2853 20.7344 20.2062 14.7731
 79.2092 49.1455 23.0688 20.7903 6.92802 -7.3444 5.44728 12.7711  0.5594 11.6043 73.1724 20.7222 47.8983 32.8524 34.0861 46.8937 54.3028 -22.885 5.79423 -128.25 -113.49 32.3006 22.8416 21.9423 21.2572 20.7132 20.2397 14.7749
 79.1973 49.2664 23.6908 20.2311 12.2139 -5.7582 10.9362 16.2103 5.17956  15.215 72.3499 19.9214 50.8411  33.442 40.5732  51.513 52.9869 -25.886 7.95129 -154.19 -109.97 32.6608 22.9943 21.8968 21.2358 20.6828 20.2907 14.7767
 78.6307 48.9237 24.0401 19.9247 17.2143 -3.4976 16.5434 19.2123 9.40489 18.3958 70.9139 18.8349 53.6061 33.6098 47.1382 55.5442 51.5541 -28.608 9.73118 -174.49 -102.04  32.973 23.1395 21.8437 21.2245 20.6476 20.3582 14.7785
 77.4124 47.9983 24.1226 19.8639  21.673 -0.5759 22.0106 21.7096 13.0301 20.9917 68.8274 17.4988   55.81 33.3238 53.4817 58.8164 50.0329 -30.723 11.0739 -190.02 -91.034 33.1326 23.2729 21.7956 21.2196 20.6103 20.4344 14.7803
 75.5072 46.4138 23.9851 20.0009 25.4488   2.833 27.1397 23.6742 15.9706 22.8521 66.0884 15.9646 57.1877 32.4862 59.3747 61.2081 48.4643 -31.951 12.0072  -202.4 -78.425 33.0814  23.393 21.7593 21.2167 20.5728  20.508  14.782
 72.9658 44.1565 23.7021 20.2602 28.4851 6.43895 31.7781  25.145 18.2843 23.9142 62.7842 14.3142 57.6457 31.0203 64.6652 62.7181 46.8962 -32.141 12.6191 -211.27 -64.051 32.8115 23.4895 21.7347 21.2165 20.5397 20.5721 14.7837
 69.9627 41.3379 23.3482 20.5651 30.7402 9.91009 35.7799 26.1947 20.0905 24.2201  59.089 12.6948 57.1995 28.9711 69.2089 63.4703 45.3707 -31.321 12.9855  -214.8 -48.004 32.3531 23.5446   21.72 21.2237  20.518 20.6268 14.7854
 66.8106 38.2385 22.9683 20.8725 32.1491 12.9325 38.9816 26.8588 21.4629 23.8655 55.2153 11.3254 55.8987  26.518 72.8042 63.6413 43.9236 -29.678 13.1223 -212.35 -32.808 31.7647 23.5478 21.7182 21.2392 20.5127 20.6741 14.7871
 63.9298 35.2708 22.5716 21.1808 32.6393 15.2624 41.2276 27.1035 22.3942 22.9408 51.3807 10.4554 53.8135 23.8798 75.2178 63.3668 42.6081 -27.475 13.0002 -205.48 -21.597  31.127 23.5044 21.7363 21.2566 20.5233 20.7117 14.7887
 61.7657 32.8648 22.1488 21.5103 32.1803 16.7877 42.4376 26.8728 22.8539 21.5254 47.7878 10.2942 51.0625 21.2422 76.2773 62.7136  41.521  -24.95 12.6062 -196.04 -14.585 30.5349 23.4276 21.7772 21.2683 20.5442  20.734 14.7903
 60.6431 31.3217  21.682 21.8909 30.8408 17.5798 42.6741 26.1785 22.8939 19.7444 44.5711 10.9234 47.8178 18.7965 75.9633  61.744 40.7881 -22.234 12.0137  -183.6 -8.6562 30.0806 23.3277 21.8344 21.2755 20.5701 20.7393 14.7919
 60.6358 30.7193 21.1418 22.3648 28.8046 17.8775 42.1499  25.144  22.698 17.8051 41.7361 12.2483 44.2693 16.7874 74.4361  60.573 40.5097 -19.332 11.3959 -165.81 -0.4923 29.8127 23.2095 21.8972 21.2864 20.5987 20.7319 14.7935
 61.5704 30.9453 20.4881 22.9813 26.3092 17.9738 41.1444 23.9542 22.4975  15.938 39.1715 14.0529  40.598 15.4382 71.9586 59.3279  40.711 -16.189 10.9553  -141.4 10.7325  29.694 23.0801 21.9602 21.3061 20.6298 20.7172 14.7951
 63.1748 31.8232  19.692 23.7714 23.5423 18.0688 39.8766 22.7633 22.4216 14.2858 36.7522 16.1195 36.9614 14.8009 68.7651 58.0578  41.337 -12.786 10.8256 -112.26 23.4703 29.6203 22.9483 22.0244 21.3306 20.6616 20.6982 14.7966
  65.225 33.2093 18.7677 24.7181 20.5848  18.198 38.4312 21.6505 22.4362 12.8451 34.4308 18.3129 33.4647 14.6959 64.9951 56.6989 42.2812 -9.1856 11.0289 -82.269   35.75 29.4907 22.8194 22.0882 21.3514   20.69 20.6775 14.7982
  67.552 34.9869 17.7813 25.7496 17.4455 18.2726  36.784 20.6628 22.4171 11.5147  32.227 20.5746 30.1466 14.8239 60.7357 55.1395 43.3987  -5.505 11.5048  -53.68 46.9399 29.2535 22.6951 22.1429  21.364 20.7108 20.6598 14.7997
 69.9715  37.011 16.8222 26.7671 14.1331 18.1816 34.8752 19.8998 22.2547 10.2107 30.1478 22.8698 26.9983 14.9687  56.082 53.3441 44.5191 -1.8524 12.1802 -25.176 57.6533 28.9206 22.5778 22.1787 21.3706 20.7226 20.6503 14.8011
 72.2764  39.101 15.9766 27.6713 10.6996 17.8715 32.6669 19.5502 21.9014 8.94947 28.1594 25.1475 23.9992 15.0957 51.1466 51.4275 45.4963 1.73711 13.0332 5.92354 68.4384   28.56 22.4719 22.1946 21.3749 20.7266  20.651 14.8026
 74.3132 41.0993 15.3338 28.3597 7.24174 17.3579 30.1593 19.8361 21.3663 7.83269  26.252  27.331 21.1551 15.2613 46.0396 49.6126 46.2733 5.31104 14.1115 39.9192 78.9697 28.2507 22.3806  22.197 21.3782  20.725   20.66 14.8041
 76.0635 42.9379 14.9936 28.7227 3.87164 16.6884 27.3716 20.9086 20.6721 6.97454 24.5017 29.3307 18.5223 15.4826 40.8469 48.1223 46.9065 8.96153 15.4893 73.7407 88.3137 28.0204 22.3001 22.1901 21.3803 20.7194 20.6759 14.8055
  77.653 44.6415 15.0375 28.6736 0.68045 15.9149 24.3113 22.7633 19.7937  6.4301 23.0391 31.0723 16.1984 15.7201 35.6146 47.0868 47.5174 12.7584 17.1819 103.324 96.0446 27.8252 22.2202 22.1722 21.3818  20.711 20.7002 14.8069
 79.2726 46.2775 15.4764 28.1984 -2.2779 15.0996 20.9606 25.2262 18.6239   6.161 21.9686 32.5306 14.2991 15.9275 30.3536 46.5128 48.2066 16.6784 19.0825 125.893  102.65 27.5925  22.129 22.1426 21.3844 20.7017 20.7352 14.8083
 81.0572 47.9096 16.2259  27.383  -4.971 14.3252 17.3016 28.0159 17.0051 6.05612 21.3199   33.74 12.9318 16.0599  25.064 46.3188 49.0004  20.571 20.9852 140.074 108.677 27.2667 22.0215  22.109 21.3862 20.6951 20.7784 14.8097
 82.9919 49.5527 17.1317   26.39 -7.3656  13.672 13.3593 30.8135 14.7916 5.96349 21.0426 34.7498 12.1422 16.0498 19.7547 46.3677 49.8552 24.1886 22.6739 145.144  113.94 26.8393 21.9021 22.0857 21.3824 20.6947 20.8221  14.811
 84.8985 51.1409 18.0257 25.4021 -9.4329 13.1692 9.20918 33.2868 11.8697 5.68417 21.0246 35.5701 11.8713 15.8257 14.4407 46.4412 50.7024 27.2649 23.9923 141.043 117.693 26.3691 21.7798 22.0838 21.3699 20.7014 20.8577 14.8123
 86.5192 52.5551 18.7808 24.5625 -11.172 12.7715 4.93912 35.1123 8.15218 4.97602 21.1356 36.1554 11.9623 15.3475 9.12672 46.2295 51.4858 29.5802 24.8451 129.392 119.577 25.9616 21.6619 22.1041 21.3525 20.7139 20.8798 14.8137
 87.6395 53.6985  19.342 23.9411 -12.625  12.384 0.61656 36.0329  3.6062 3.61639 21.2926 36.4208 12.1881 14.5691 3.80937 45.3953 52.1685 30.9788 25.1604 113.639 119.826 25.7179 21.5497 22.1393 21.3371 20.7307 20.8871  14.815
 88.1575 54.5385 19.7227 23.5382 -13.876 11.8966 -3.7037 35.8994 -1.7011 1.46715 21.5061 36.2739 12.2963 13.3674 -1.5106 43.6428 52.7319 31.3751 24.8765 97.3287 118.417 25.7077 21.4432 22.1837 21.3243 20.7498 20.8796 14.8163
 88.0803 55.0843 19.9793 23.3039 -15.028 11.2021  -7.954 34.6732 -7.6129 -1.5135 21.8535 35.6431  12.058 11.5563 -6.8439  40.749  53.188 30.7807 23.9687 82.0687 114.533 25.9565 21.3482  22.237 21.3062 20.7659 20.8596 14.8175
 87.4828 55.3502 20.1858 23.1566 -16.172  10.217 -12.035 32.4252 -13.937 -5.2787 22.3903 34.4937 11.3049 8.97796 -12.234 36.6014 53.5909 29.3361 22.4837 67.3201 106.957 26.4216 21.2719 22.2986 21.2767 20.7704 20.8314 14.8188
 86.4404 55.3374 20.4108 23.0107 -17.348 8.91042 -15.813 29.3294 -20.492 -9.6933 23.0754 32.8366 9.96178 5.59043 -17.728 31.2362 54.0202 27.2971 20.5422 52.5503 95.0964 26.9924 21.2142 22.3607 21.2409 20.7579 20.7994   14.82
 84.9814 55.0418 20.6967 22.8123 -18.519 7.32091 -19.133 25.6292 -27.128 -14.556 23.7637 30.7425 8.06424 1.50167 -23.326 24.8322 54.5411 24.9712 18.3153 39.0027 79.2064 27.5442 21.1645 22.4106 21.2103 20.7309 20.7662 14.8212
 83.1112 54.4868 21.0576 22.5468 -19.582  5.5407 -21.843 21.5885 -33.729 -19.654 24.2582 28.3578 5.74774 -3.0633 -28.967 17.6573  55.181 22.6541  16.005 28.7005 59.6716 27.9953 21.1117 22.4399 21.1918 20.6974 20.7313 14.8224
 80.8768 53.7601  21.496 22.2177 -20.401 3.67028 -23.816 17.4358 -40.218 -24.826   24.39 25.8841 3.17165 -7.8374 -34.568 9.99453 55.9321 20.5895 13.8161 22.1474 36.7357 28.2952 21.0563 22.4497 21.1822 20.6653 20.6934 14.8236
 78.4027 53.0146 22.0067 21.8338  -20.86 1.77354 -25.011 13.3093 -46.564 -30.016 24.0686 23.5271 0.39617 -12.576 -40.091 2.08007 56.7741 18.9554 11.9015 17.7757 11.2424 28.3782 21.0102 22.4453 21.1749 20.6393 20.6523 14.8248
 75.8536 52.4059 22.5749 21.4063 -20.918 -0.1389 -25.526 9.24124 -52.786 -35.276  23.262 21.4494 -2.6619 -17.094 -45.581 -5.9201  57.673 17.8437 10.3066 14.1705 -13.993 28.1708 20.9874 22.4284 21.1698 20.6225 20.6114  14.826
 73.3585 52.0248 23.1808 20.9475  -20.61 -2.0729  -25.56 5.21407 -58.891 -40.679 21.9485  19.758  -6.134 -21.287 -51.119 -13.876 58.5563  17.236 8.96955 12.0392  -34.12 27.6297 20.9915 22.3963 21.1727  20.617 20.5758 14.8271
 70.9805 51.8991 23.7875 20.4856 -20.017 -3.9783 -25.318 1.25537 -64.815 -46.233 20.1088 18.5236 -10.068 -25.119 -56.737 -21.633 59.3212 17.0251 7.80005 13.0386 -44.615 26.7517 21.0132 22.3497 21.1862  20.623 20.5481 14.8282
  68.745 52.0272 24.3195  20.086 -19.234 -5.7098 -24.904 -2.5006 -70.394 -51.847 17.7514 17.7815 -14.369 -28.583 -62.384 -28.982 59.8728 17.0833 6.77596 16.9369 -44.289 25.5713 21.0417  22.296 21.2031 20.6374 20.5272 14.8293
 66.6617 52.3953 24.6601 19.8517 -18.354 -7.0539 -24.312 -5.8186 -75.392 -57.363 14.9289 17.5225 -18.816 -31.642 -67.933 -35.696  60.151 17.3301 5.97594 20.6518   -36.1  24.152 21.0743 22.2444 21.2124 20.6546 20.5102 14.8304
 64.7032 52.9843 24.6767 19.9027 -17.476 -7.7896 -23.482 -8.4146 -79.589 -62.602 11.7232 17.7092 -23.138 -34.177 -73.223  -41.57 60.1289 17.7497  5.5294 20.4727 -24.857 22.5676 21.1145 22.1987  21.211 20.6704 20.4968 14.8315
 62.7788 53.7606 24.2581 20.3471 -16.711 -7.7457 -22.383 -10.019  -82.85  -67.38 8.21297 18.2958 -27.112  -36.02 -78.085 -46.462 59.7905 18.3509 5.54089 14.4563 -14.634  20.884 21.1635 22.1585  21.208 20.6851 20.4923 14.8326
 60.7685 54.6624 23.3404 21.2568 -16.181 -6.8384 -21.038  -10.44 -85.144 -71.519 4.47002 19.2371 -30.618 -37.049  -82.36  -50.29 59.1197 19.1242 6.05664 2.22892 -8.1927 19.1424 21.2195 22.1254 21.2142 20.7017 20.5043 14.8337
 58.6175 55.6078  21.914 22.6504 -15.969 -5.0956 -19.523 -9.6227 -86.512 -74.874 0.58771 20.4939  -33.62 -37.271  -85.91 -53.045 58.1161 20.0386 7.07017 -16.547 -7.3671 17.3546 21.2853 22.1042 21.2317 20.7231  20.536 14.8347
  56.405 56.5273 20.0334  24.476 -16.064 -2.6528 -17.919 -7.6696 -87.024 -77.379 -3.3171 22.0398 -36.114 -36.825 -88.629 -54.803 56.8236 21.0752 8.53666 -42.295 -12.808 15.5132 21.3696 22.1001 21.2543 20.7477 20.5836 14.8357
 54.3159 57.3716 17.8339 26.5984 -16.341 0.29905 -16.279 -4.7921 -86.756 -79.038 -7.1304 23.8461 -38.067 -35.887 -90.455 -55.676  55.339 22.2568  10.386 -73.365 -22.833 13.6088 21.4772 22.1136 21.2764 20.7706 20.6399 14.8368
 52.5497 58.0731 15.5192 28.8153   -16.6 3.57125 -14.632 -1.2461 -85.797 -79.899 -10.738 25.8394 -39.431  -34.57 -91.379 -55.787 53.7757 23.6239  12.517 -104.75 -33.788 11.6466 21.5991 22.1379 21.2988 20.7879  20.699 14.8378
  51.271 58.5385 13.3093 30.9101 -16.668 6.98718 -13.032 2.68151 -84.269 -80.089  -13.98 27.8784 -40.189 -32.889 -91.479 -55.275 52.2149 25.1849 14.7845 -130.58 -43.304 9.65505 21.7162  22.163 21.3229 20.8015 20.7576 14.8387
  50.638 58.7142 11.3934 32.6991 -16.463 10.3687 -11.578 6.68556 -82.328 -79.818 -16.624 29.7896 -40.374   -30.8 -90.917  -54.31 50.6942  26.904  17.028 -147.84 -52.564 7.69668 21.8164  22.181 21.3428  20.817 20.8134 14.8397
 50.8119 58.6363 9.91569 34.0475 -15.985 13.5585 -10.358 10.5138 -80.101 -79.297 -18.394 31.4285  -40.04 -28.218 -89.845 -53.038 49.2302 28.7398 19.1484 -157.33 -64.108 5.86709 21.9051 22.1876 21.3476  20.839 20.8633 14.8407
  51.865 58.3863 8.96875 34.8756 -15.276 16.4766 -9.3837 14.0486 -77.626 -78.626 -19.065 32.7083 -39.241 -25.017 -88.332 -51.507 47.8335 30.6752 21.1513 -161.12 -77.794 4.25978 21.9973 22.1805 21.3319 20.8677 20.9029 14.8416
 53.6888  58.026 8.57916 35.1694 -14.393 19.1546 -8.5916 17.3163 -74.872 -77.759 -18.538 33.5975 -38.021  -21.07 -86.368 -49.635 46.4965 32.7017 23.0972  -159.6 -89.727 2.94714 22.1019 22.1574  21.303    20.9   20.93 14.8426
 56.0301 57.6115 8.70177 34.9808 -13.395 21.7112 -7.8794 20.4297 -71.797 -76.536 -16.865 34.1343 -36.397 -16.339 -83.921 -47.253 45.1872 34.7927 25.0205 -151.32 -94.819 2.00801 22.2174  22.119 21.2724 20.9328 20.9467 14.8435
 58.6252 57.2296 9.23552 34.4077 -12.282  24.277 -7.1102 23.5152 -68.356 -74.742 -14.198 34.4366 -34.323 -10.928 -80.938 -44.189 43.8703 36.9077 26.9064 -135.86 -89.862  1.5343 22.3409 22.0721  21.246 20.9639 20.9562 14.8444
 61.3024 56.9723 10.0425  33.578 -10.965 26.9128 -6.1219 26.6527 -64.501 -72.171 -10.724 34.6606 -31.705 -5.0754 -77.346 -40.358 42.5341 39.0114  28.719 -116.02  -75.19  1.5753 22.4696 22.0273 21.2215  20.992 20.9621 14.8453
 63.9763 56.8814 10.9592 32.6485 -9.3145 29.5786 -4.7737 29.8494 -60.188 -68.709 -6.6474 34.9384 -28.468  0.8724 -73.081 -35.808  41.189 41.0691 30.4287 -96.632 -54.499 2.09951 22.5974 21.9912 21.1959 21.0172 20.9668 14.8462
 66.5664 56.9349 11.8191 31.7855 -7.2121 32.1828 -2.9804 33.0705 -55.401 -64.359 -2.2065 35.3444 -24.611 6.53652 -68.114 -30.687 39.8404 43.0239  32.015 -80.831 -32.552 3.03622  22.719 21.9609 21.1731  21.042 20.9705 14.8471
 68.9359 57.0753 12.4883 31.1261 -4.5567 34.6604 -0.7089 36.2885 -50.181  -59.22 2.33826 35.8952 -20.194 11.6131 -62.465 -25.183 38.4778 44.7915  33.457 -67.941 -12.912 4.32903 22.8365 21.9281 21.1619 21.0692 20.9711  14.848
 70.9032 57.2324 12.8871 30.7526 -1.2866 36.9846 2.01189 39.4747 -44.663 -53.491 6.75345 36.5578  -15.32 15.9235 -56.233 -19.497 37.0847 46.2633 34.7193 -55.501 2.42292 5.92556 22.9609 21.8883 21.1659 21.0994  20.965 14.8488
 72.3169 57.3129 13.0004 30.6802 2.56026 39.1113 5.05275 42.5442 -39.083 -47.496 10.8886 37.2454 -10.131 19.3578 -49.602 -13.864 35.6498 47.3058 35.7435 -42.773 12.5205 7.74233 23.1044 21.8429 21.1785 21.1304 20.9507 14.8497
 73.1332 57.1951 12.8891 30.8414 6.82766 40.9405 8.18107 45.3322 -33.738  -41.68 14.6905 37.8195 -4.8044 21.7945 -42.818 -8.5685 34.1716  47.781 36.4595 -31.314 17.6447 9.67047 23.2704 21.7957 21.1904 21.1569 20.9292 14.8505
 73.4379 56.7659 12.6887  31.089  11.285 42.3213 11.1186 47.6169 -28.924 -36.535 18.1674 38.1153 0.45358 23.1108 -36.129  -3.917 32.6368 47.5738 36.7893 -22.117 20.1849   11.59 23.4498 21.7487 21.1994  21.173 20.9046 14.8514
 73.4114 55.9771 12.5907 31.2211 15.6921 43.0843 13.6226 49.1608 -24.885  -32.51 21.3517 37.9867 5.44823 23.2645 -29.727  -0.204 31.0027 46.6061 36.6367 -13.474 24.2677 13.3682 23.6234 21.7027 21.2089 21.1759 20.8819 14.8522
 73.2623 54.8567 12.8151 31.0103 19.8723 43.0901 15.5699 49.7813 -21.742 -29.898 24.2853 37.3406 10.0506 22.3438 -23.704 2.36686 29.2294 44.8638 35.9215 -2.6379 32.9785 14.8861 23.7687   21.66  21.219 21.1679  20.865  14.853
  73.148 53.4419 13.5698 30.2426  23.759 42.2719 17.0176 49.4355 -19.413 -28.735 27.0035 36.1401 14.2306 20.5588 -18.019 3.76875 27.3321 42.4316 34.6498 10.9327 46.0747 16.0811 23.8652 21.6246 21.2215 21.1541 20.8542 14.8538
 73.1138 51.7092 14.9939 28.7762 27.3731  40.656 18.1831 48.2402 -17.601 -28.782 29.5279 34.3933 18.0431 18.1946  -12.51 4.18339 25.4014 39.4907 32.9279 24.8425 60.8697 16.9546 23.8984 21.5976 21.2084 21.1394 20.8484 14.8546
 73.0992 49.5958  17.106 26.5952 30.7568 38.3585 19.3466 46.4097 -15.886  -29.61 31.8874 32.1506 21.6147 15.5346 -6.9483 3.95285 23.5788  36.268 30.8923 36.3436 74.8159 17.5411 23.8643 21.5745 21.1822 21.1274 20.8465 14.8553
 73.0023 47.1085   19.78 23.8371 33.9236 35.5718 20.7481 44.1788 -13.872 -30.725 34.1192 29.5192 25.1264 12.8077 -1.1234 3.48302 22.0241 32.9903 28.6402 44.6712 86.5361 17.8697 23.7683 21.5478 21.1538 21.1213  20.847 14.8561
 72.7251 44.4006 22.7564 20.7806 36.8162 32.5379 22.5026 41.7457 -11.307 -31.706 36.2265 26.6712 28.7255 10.1829 5.06287 3.13505 20.8902 29.8598 26.2089 50.4887 95.1084 17.9486  23.624 21.5153 21.1307  21.122 20.8467 14.8568
 72.1728 41.7289  25.695  17.783 39.2708 29.4998 24.5254 39.2188 -8.1759 -32.321 38.1524 23.8004 32.4083 7.76222 11.5095 3.11742 20.2859 27.0127 23.5622 53.8882 99.3979 17.7459 23.4546 21.4819 21.1134 21.1272  20.841 14.8576
 71.2618 39.3442 28.2602 15.1892 41.0336 26.6603 26.5131 36.5988 -4.7261  -32.59  39.808 21.0609 36.0098 5.58001 17.9156 3.43415 20.2517 24.4789 20.5922 53.8304 98.2685 17.1668 23.2891 21.4518 21.1023 21.1336 20.8272 14.8583
 69.9371 37.4109 30.2052 13.2498 41.8299 24.1783 28.0154 33.8375 -1.4012  -32.74 41.1175 18.5411 39.3015 3.63684 23.8659 3.95049 20.7641 22.1855 17.1651 49.9569  91.451 16.0988  23.153 21.4234 21.1061 21.1392 20.8052 14.8591
 68.1597 35.9836  31.421 12.0745 41.4462   22.17 28.5601 30.9188 1.28762 -33.065 42.0266 16.2807 42.0544 1.93192 28.9312 4.52192 21.7479 20.0032 13.1857 44.0715 79.6358 14.4958 23.0611 21.3916 21.1359 21.1426 20.7769 14.8598
 65.9063  35.026 31.9369 11.6314 39.8064 20.6783 27.7877 27.8885 2.90331 -33.808 42.4793 14.2999 44.0492 0.47337 32.7443  5.0683 23.0895 17.8145 8.65497 38.9134 63.6581 12.4068 23.0185 21.3572 21.1909 21.1433 20.7443 14.8605
 63.2253 34.4636  31.885 11.7835 37.0179 19.6388 25.5591 24.8173 3.19207  -35.11 42.4381 12.6169 45.1224 -0.7346 35.0782 5.55588 24.6616 15.5721 3.69927 35.6807 44.1451 9.95028  23.022 21.3293  21.256  21.142 20.7103 14.8612
 60.2824 34.2483 31.4417 12.3474 33.3611  18.901 21.9919 21.7633 2.13161 -37.019 41.9325 11.2579 45.2572 -1.7146 35.9236 5.96088 26.3619 13.3223 -1.4396 33.3724 22.1849 7.28123 23.0603 21.3175 21.3149 21.1397 20.6801 14.8619
 57.3228 34.3762 30.7637 13.1583 29.2267 18.3202   17.43 18.8004  -0.064 -39.473 41.0619 10.2642   44.65 -2.4968 35.5325 6.29716 28.1341 11.1941 -6.4343 30.9983 0.63165 4.56566 23.1175 21.3205 21.3615 21.1356 20.6587 14.8625
 54.5857 34.8525 29.9306 14.1242 25.0343 17.8679 12.3711 16.0831 -2.9716 -42.247 39.9588 9.68883 43.6812  -3.043 34.3885 6.67813 29.9588 9.37091 -10.902 29.5941 -15.852 2.00789 23.1746 21.3283 21.3983 21.1266 20.6499 14.8632
 52.2438 35.6656 28.9223  15.242 21.1568 17.6613 7.36162 13.8511 -6.0471 -44.972 38.7621 9.58304 42.7993 -3.2098 33.0935 7.31409 31.8357 8.05571  -14.45 31.0858 -23.045 -0.0738  23.211 21.3337 21.4269 21.1103 20.6545 14.8639
 50.3989 36.7906 27.6609  16.561 17.8657 17.8904 2.88781 12.3545   -8.76 -47.231 37.6013 9.98701 42.4198 -2.8164 32.2113 8.42655   33.77 7.42855 -16.741  35.458 -19.966 -1.2535 23.2159 21.3373 21.4424 21.0866 20.6706 14.8645
 49.0983 38.2008 26.0817 18.1277 15.2901 18.7261 -0.7062 11.7764 -10.704 -48.676 36.5783 10.9248 42.8287 -1.7465 32.1301 10.1649  35.776 7.61888 -17.561 39.7838 -9.5874 -1.1454 23.1957 21.3406 21.4384 21.0576 20.6958 14.8652
 48.3169 39.8477 24.1672 19.9599 13.3926 20.2821 -3.2606  12.205 -11.643 -49.107  35.737  12.377 44.0595 -0.0141 32.9846 12.5811 37.8624 8.69058 -16.862 40.4346 3.38564 0.41625 23.1662 21.3411 21.4159 21.0273 20.7286 14.8658
 47.9302 41.6229 21.9364 22.0514 12.0015 22.6107 -4.8005 13.6276 -11.514 -48.496 35.0454 14.2492 45.8729 2.22493 34.6619 15.6302 39.9891 10.6271 -14.795 35.4747 14.9803 3.29378 23.1361 21.3356 21.3847 21.0009  20.767 14.8664
 47.7565 43.3879  19.432 24.3801 10.9053 25.6854 -5.4852 15.9195 -10.393 -46.984 34.4162 16.3905 47.8743 4.72975 36.8877 19.1806 42.0469 13.3295 -11.666 24.5029 22.4915 7.07696 23.1021 21.3252 21.3557 20.9832 20.8071 14.8671
 47.6517 45.0501  16.723 26.9017 9.96055 29.3744 -5.5123 18.8418 -8.4428 -44.834 33.7565 18.6389 49.6609 7.26715 39.3462 23.0405 43.8887 16.6394 -7.8435 7.18245 24.1348 11.1769 23.0628 21.3157 21.3332 20.9762 20.8456 14.8677
 47.5644 46.5767  13.915 29.5347 9.15964 33.4461 -5.0193 22.0723 -5.8304 -42.351 33.0154 20.8454 50.9516 9.68165 41.7924 26.9911 45.3982 20.3743 -3.6591 -16.864  19.297 14.9584 23.0293 21.3119 21.3154 20.9775 20.8816 14.8683
 47.5112  47.937 11.1541 32.1485 8.63347  37.621 -4.0293 25.2786 -2.6605 -39.793 32.2289 22.8837 51.6756 11.9166  44.133 30.8295 46.5375 24.3508 0.63256 -45.948 9.58536 17.8976 23.0172  21.311 21.3025 20.9818  20.916 14.8689
 47.5304  49.072 8.61831 34.5718 8.59112 41.6358 -2.4645 28.1962 1.05778 -37.301 31.5486 24.6689 51.9649 13.9895 46.4427 34.4119 47.3312 28.3778 4.84203 -75.037 -1.4986 19.7071 23.0306 21.3052    21.3 20.9847 20.9505 14.8695
  47.673 49.9354 6.48848 36.6285 9.23101 45.2818 -0.2285 30.6557 5.35537 -34.917 31.2182 26.1899 52.0615 15.9499 48.8898 37.6497 47.8244 32.2444 8.82087 -98.208 -11.617 20.3808 23.0598 21.2891  21.314 20.9842 20.9878   14.87
 47.9982 50.5329  4.9006 38.1864 10.6813 48.4197 2.70556  32.566 10.2188 -32.644 31.4795 27.5175 52.2228 17.8627 51.6252 40.4651 48.0579 35.7389  12.472 -112.44 -21.918   20.15 23.0948 21.2631 21.3427   20.98  21.031 14.8706
 48.5283 50.9078 3.91663 39.1809 12.9828 50.9842 6.27794 33.9042 15.5628 -30.469 32.4663 28.7708 52.6749 19.8069 54.7222 42.7777 48.0697 38.6957 15.7904 -118.69 -35.197 19.3722 23.1339 21.2314 21.3748 20.9717 21.0782 14.8712
 49.2112 51.0994 3.53418 39.6044 16.0699 52.9789 10.3661 34.7107 21.2449 -28.352 34.1632 30.0752 53.6007 21.8265 58.1705 44.5355 47.8912 41.0084 18.8607 -119.48 -52.086 18.4007 23.1791 21.1957 21.3996 20.9585 21.1231 14.8717
 49.9463 51.1278 3.69949 39.5018  19.745 54.4616  14.794 35.0795 27.0803 -26.202 36.4419 31.5383 55.1329 23.8763 61.8876 45.7502 47.5162 42.5831 21.7768 -115.74 -69.775 17.4964 23.2275 21.1554 21.4164 20.9407 21.1608 14.8723
  50.647 51.0225  4.2901 38.9919 23.6916 55.5339 19.3305 35.1548 32.8682 -23.853 39.1283 33.2501 57.3088 25.8576 65.7345 46.5227 46.8919 43.3128 24.5746 -106.59 -84.209 16.7883 23.2682 21.1126  21.431 20.9211 21.1921 14.8728
 51.2884 50.8528 5.11467   38.26 27.5322 56.3109 23.7062 35.1119 38.4344 -21.085 42.0681 35.2844 60.0163 27.6946 69.5362 47.0233 45.9592 43.1211  27.241 -92.183 -92.839 16.2683 23.2917 21.0764 21.4454 20.9037 21.2193 14.8734
  51.927 50.7253 5.97298 37.4923 30.9025 56.8531 27.6405 35.0798 43.6461 -17.723 45.1633 37.6719 63.0199 29.3542 73.1041 47.4063 44.6977 42.0205 29.7456 -75.743 -95.574 15.8432 23.2989 21.0575 21.4545 20.8908 21.2394 14.8739
 52.6688 50.7502 6.72391 36.8178 33.5232 57.1147 30.8705   35.06 48.3973 -13.737 48.3499 40.3612 66.0563 30.7946 76.2669 47.7272 43.1383 40.1141 32.0285 -61.963 -93.747 15.4319 23.3005 21.0595  21.453 20.8818 21.2453 14.8744
 53.5759 50.9864 7.30151 36.3036  35.251 56.9634 33.1877 34.9271 52.6033 -9.2604 51.5448 43.1967 68.9079 31.9167  78.904 47.9391 41.3416 37.5407 33.9578 -53.165 -88.334 15.0186 23.3046 21.0762 21.4446 20.8771 21.2323  14.875
 54.5886 51.4097  7.6988 35.9656 36.0957 56.2445 34.4664 34.4944 56.2027 -4.5346 54.6366 45.9464 71.4463 32.6132 80.9506 47.9399 39.3806 34.4305 35.3307 -47.617 -79.517 14.6292 23.3075 21.0982 21.4385 20.8797 21.2007 14.8755
 55.5499  51.932 7.96338 35.7596 36.2129 54.8436 34.6846 33.6031 59.1582  0.1665 57.5273 48.3638 73.6731  32.877 82.3812 47.6332 37.3488  30.913 35.9572 -41.991 -67.588  14.281 23.2984 21.1202 21.4371 20.8926 21.1554  14.876
 56.3004 52.4341 8.20256 35.5755 35.8727 52.7391 33.9469 32.2133 61.4728 4.60811  60.161 50.2402 75.6913 32.8439 83.2165 47.0061 35.3755 27.1519 35.7675 -35.015 -53.619 13.9577 23.2668 21.1424 21.4322 20.9154 21.1038 14.8765
 56.7456 52.7932 8.56833 35.2592 35.3882 50.0193 32.4727 30.4377 63.1997 8.64499 62.5194  51.445 77.6177 32.7346  83.544 46.1724 33.6104 23.3526  34.843 -28.046 -39.042  13.625 23.2044 21.1648 21.4169 20.9427 21.0556  14.877
 56.8546 52.9194 9.21364   34.66 35.0314 46.8626 30.5308 28.4928 64.4351 12.2391 64.6066  51.945 79.5453 32.7475 83.5067 45.3523 32.1706  19.723 33.3513 -22.122 -24.035 13.2561 23.1084 21.1828 21.3945 20.9671 21.0193 14.8774
  56.652  52.794 10.2443 33.6753 34.9781 43.5217 28.3765 26.6407 65.3184 15.4643 66.4399 51.7989  81.534 32.9954 83.2799 44.8366 31.1103  16.447 31.4858 -15.734 -6.9574 12.8281 22.9845 21.1896 21.3745  20.985 20.9993 14.8779
  56.236 52.4751 11.6889 32.2768 35.2968 40.3138 26.2342 25.1509 66.0362 18.4748 68.0515 51.1421 83.5882  33.526 83.0557 44.9463 30.4397 13.7004 29.4662 -6.3666 13.4582 12.2951 22.8502 21.1827 21.3617 20.9987 20.9953 14.8784
 55.7706 52.0615 13.4817 30.5258 35.9532 37.5798 24.2909  24.257 66.7897 21.4228 69.4726 50.1542 85.6859 34.3723 83.0107 45.9533 30.1402 11.6438 27.5319 6.32504 35.9432 11.5909 22.7303 21.1669 21.3532 21.0135 21.0027 14.8789
 55.4333 51.6542 15.4684 28.5695 36.8179  35.623 22.6703 24.1163 67.7295  24.385 70.7064 49.0173 87.8174 35.5765 83.2486 47.9993 30.1556 10.3714 25.8909 19.7882  57.515 10.6936 22.6462  21.147 21.3449 21.0337 21.0165 14.8793
 55.3565 51.3337  17.446 26.6044 37.7009 34.6546 21.4062 24.7868 68.8893 27.3439  71.731 47.8714 89.9469 37.1538 83.7564 51.0689 30.3855 9.86281 24.6534 31.1295 75.8613  9.6793 22.6066 21.1224 21.3383 21.0595 21.0326 14.8798
 55.5772 51.1362 19.2104 24.8305 38.4127 34.7455  20.439 26.2136 70.1606 30.1935 72.5085 46.7753 91.9576 39.0103 84.4082 55.0041 30.6986  9.9787 23.8029  39.448 90.0771 8.68559 22.6072 21.0905 21.3376 21.0875 21.0473 14.8802
 56.0123 51.0347  20.595  23.414 38.8284 35.8037 19.6613 28.2353 71.3394 32.7594 72.9777 45.6842 93.6599 40.9076 85.0075 59.5294 30.9708 10.5245 23.2324 45.2846 99.7423 7.82968   22.64 21.0552 21.3414 21.1131 21.0571 14.8807
 56.4811 50.9353 21.5061 22.4521 38.9197 37.5968 18.9841 30.6122 72.2201 34.8441 73.0514 44.4588 94.8412 42.5265 85.3421  64.279 31.1271 11.3416 22.8194 48.6258 104.168 7.16756 22.6986  21.026 21.3407 21.1321  21.061 14.8811
 56.7705 50.7076 21.9388 21.9538 38.7345 39.7989 18.3578 33.0553 72.6716 36.2729 72.6285 42.9218 95.3096 43.5677 85.2289 68.8238 31.1654 12.3499 22.4762 48.3596 102.587 6.69361 22.7745 21.0096 21.3268 21.1391 21.0604 14.8815
 56.6833 50.2307  21.959 21.8561 38.3549 42.0346 17.7269 35.2417 72.6488 36.9037 71.6098 40.9244 94.9274 43.8129 84.5291 72.6923 31.1392 13.5104 22.1339 44.1502 95.0103 6.35457 22.8541 21.0056 21.3002 21.1262 21.0584  14.882
 56.0391 49.4204 21.6601 22.0676 37.8509 43.9168 16.9718 36.8234 72.1303  36.603  69.904 38.3759 93.6254 43.1363 83.1249  75.401 31.1099 14.7628 21.6954 37.9744 82.3309 6.07224 22.9219 21.0099 21.2663  21.088 21.0579 14.8824
 54.6741 48.2388 21.1219 22.5096 37.2449  45.095 15.9032 37.4603 71.0558 35.2508 67.4231 35.2501 91.3771 41.4986 80.8991 76.5246 31.1181 16.0213 21.0415 32.8107 65.5187 5.77074 22.9686 21.0185  21.226 21.0278 21.0581 14.8828
  52.482  46.689  20.405 23.1188 36.5168 45.3259 14.3277 36.8967 69.3262 32.7834 64.1124 31.5767 88.1869 38.9231 77.7651 75.7857 31.1927 17.2202 20.1026 29.9593  45.284 5.40916 22.9936 21.0288 21.1755 20.9562  21.056 14.8832
 49.4788 44.8049 19.5867 23.8135 35.6439 44.5319 12.1235 35.0327 66.8283 29.2156 60.0234 27.4231 84.1416 35.4564 73.7026 73.1086 31.3828 18.3479 18.9051 28.2825 22.7614  4.9882 23.0014 21.0373 21.1154 20.8867 21.0503 14.8836
 45.8304 42.6544 18.7915 24.4749 34.6202 42.8197 9.26745 31.9545 63.4509 24.6403 55.3441 22.8744 79.4469 31.1628 68.7545  68.625 31.7771 19.4376 17.5475 26.5547 0.82833 4.50374  22.997 21.0373 21.0566 20.8301 21.0427  14.884
 41.7983 40.3445 18.1638 24.9798 33.4473 40.4612 5.83698 27.9263 59.1055 19.2438 50.3398 18.0276 74.3887 26.1751 63.0028 62.6648 32.4936 20.5476 16.1678 25.6994 -15.842 3.92291   22.98  21.022 21.0147 20.7919 21.0356 14.8844
 37.6389 38.0059 17.8001  25.258 32.1338   37.84 2.01376 23.3463 53.7569 13.3103 45.2648 12.9949 69.2529 20.7245 56.5572 55.7245 33.6373 21.7523 14.9437 27.6911 -23.023 3.23364 22.9453 20.9929 20.9969 20.7733 21.0315 14.8848
  33.527 35.7393 17.7151 25.3109 30.7047 35.3525 -1.9364 18.6595 47.4348 7.17087 40.3134 7.89077 64.2439 15.0975 49.5556  48.373 35.2429 23.1165 14.0791  32.598  -19.73 2.48129 22.8915  20.961 20.9966 20.7717 21.0314 14.8852
 29.5571  33.577 17.8608  25.189 29.1983  33.293 -5.7301 14.2594 40.2115 1.11967 35.6161 2.81381 59.4364 9.59131 42.1423 41.1354 37.2539 24.6521 13.7478 37.5469 -8.9344 1.73237 22.8252 20.9391 21.0004 20.7815 21.0343 14.8855
 25.7853 31.5131 18.1567 24.9672 27.6474 31.7942 -9.1444 10.4425 32.1615 -4.6424 31.2436 -2.1511 54.8116 4.48636  34.426 34.4337 39.5409 26.2905 14.0305 38.9467 4.65385 1.02206 22.7563 20.9311 21.0004 20.7961 21.0378 14.8859
 22.2427 29.5517 18.5093 24.7285 26.0719 30.8543 -12.066 7.41477 23.3379 -10.021 27.2059 -6.9182 50.3424 -0.0192 26.4563 28.5727 41.9272 27.8964 14.8856  34.886 17.0427 0.34885 22.6872 20.9312 20.9964 20.8104 21.0412 14.8863
 18.9271 27.7082  18.837 24.5414 24.4924 30.3996 -14.496 5.29838 13.7912 -15.022 23.4756 -11.396 46.0144  -3.856 18.2524 23.7124   44.22 29.3252 16.1892 24.9609 25.4817 -0.2887 22.6124 20.9345 20.9872 20.8212 21.0437 14.8867
 15.8166 25.9715 19.0968 24.4316 22.9443 30.3226 -16.505 4.12002  3.6166  -19.73 20.0317 -15.514 41.7899 -7.0526 9.86033  19.839 46.2501 30.4953 17.8121 8.78878 28.1009 -0.8698 22.5315 20.9445 20.9652 20.8239 21.0415  14.887
 12.8842 24.2837 19.2968 24.3719 21.4728 30.4845 -18.196 3.79048 -7.0383 -24.306 16.8719 -19.253 37.6058 -9.6801 1.37482 16.7598  47.907 31.4185 19.6575 -14.101 24.1434  -1.374 22.4575 20.9678 20.9228 20.8133   21.03 14.8874
 10.0878 22.5447 19.4832 24.3009 20.1063 30.7225 -19.692 4.10861 -18.012 -28.977 13.9905 -22.659 33.4156 -11.833 -7.0962 14.1383 49.1489 32.1689 21.6292 -42.168 14.8945 -1.7975 22.4068 21.0053 20.8635 20.7856 21.0091 14.8877
 7.35408 20.6277 19.7111 24.1553   18.83 30.9018 -21.129  4.8256 -29.151 -33.972 11.3738 -25.807 29.2214 -13.646 -15.467 11.5944 49.9856 32.8344 23.5909 -70.659 3.14999 -2.1292 22.3824 21.0502 20.8025 20.7402 20.9851 14.8881
 4.60619 18.4343 20.0095 23.9081 17.5721 30.9787  -22.64 5.72686 -40.294 -39.426 9.01591 -28.742 25.0683 -15.315 -23.674 8.82594 50.4584 33.4951 25.3791 -94.153 -9.7067 -2.3404 22.3692 21.0941 20.7555 20.6803 20.9673 14.8884
 1.82641 15.9734 20.3479 23.5969 16.2162  31.003 -24.348 6.64805 -51.248 -45.343 6.92425 -31.434 21.0365 -17.067 -31.652 5.65914 50.6254 34.2126 26.8347 -110.28 -25.617 -2.4298 22.3477 21.1336 20.7281 20.6122 20.9629 14.8887
 -0.9207 13.3825 20.6354 23.3189 14.6519 31.0725 -26.351 7.44301 -61.781 -51.628 5.11608 -33.769 17.2475 -19.085 -39.316 2.03165 50.5583 35.0349 27.8244 -120.61 -47.954 -2.4653 22.3033 21.1705 20.7146 20.5428 20.9739 14.8891
 -3.5371 10.8568 20.7609 23.1864  12.846 31.3048 -28.686 7.99879 -71.616 -58.125 3.61946 -35.564 13.8532  -21.41 -46.517 -2.0156 50.3368 36.0247 28.2794 -128.12 -77.836   -2.56 22.2266 21.2059 20.7072 20.4775  20.996 14.8894
 -5.9623 8.54265  20.625 23.2994 10.8794 31.8228 -31.268 8.29747 -80.435 -64.619 2.46299 -36.617 11.0157 -23.891 -53.019 -6.3247 50.0067 37.2541  28.227 -133.86 -112.65 -2.8167 22.1087 21.2357 20.7061 20.4221  21.023 14.8897
 -8.2013 6.48529 20.1327 23.7561 8.91591 32.7119 -33.901 8.42745 -87.928 -70.844 1.63684 -36.764 8.88516 -26.245  -58.53 -10.632 49.5383 38.7451 27.7679 -136.56 -147.89 -3.2947 21.9428 21.2552 20.7172 20.3827 21.0517   14.89
 -10.289 4.66119 19.1992 24.6446 7.15094 33.9612 -36.344 8.51521 -93.867 -76.523   1.073 -35.908  7.5798 -28.175 -62.802 -14.627 48.8509 40.4322 27.0391 -135.24 -179.51 -3.9913 21.7362  21.266 20.7432 20.3633 21.0813 14.8904
 -12.223 3.03809 17.8046 25.9881 5.79874 35.4432 -38.346 8.65942 -98.149 -81.414 0.69906 -34.025 7.18909 -29.441 -65.671 -18.031 47.8852 42.1995 26.2106 -131.07 -204.65 -4.8492  21.515 21.2755 20.7787 20.3627 21.1091 14.8907
  -13.93 1.60349 16.0501 27.6946 5.10229 36.9667 -39.646  8.9358 -100.76 -85.313 0.51927 -31.171 7.79337 -29.838 -67.045 -20.621  46.653 43.9441 25.4873  -125.8 -220.69 -5.8114 21.3132  21.288 20.8153 20.3743 21.1304  14.891
 -15.298 0.36538 14.1537 29.5627 5.31565 38.3728 -39.974 9.43998 -101.73 -88.031 0.62172 -27.487 9.44806 -29.178 -66.881 -22.213 45.2255 45.5949 25.0678 -118.98 -224.99 -6.8688 21.1551 21.3005 20.8522 20.3895 21.1436 14.8913
 -16.269   -0.65 12.3772 31.3464 6.63668 39.5973 -39.115 10.3005 -101.16 -89.401 1.09251  -23.16  12.102 -27.325 -65.224 -22.661 43.6851 47.0879 25.0805 -107.89 -216.05 -8.0329 21.0493 21.3064 20.8956 20.4028 21.1523 14.8916
 -16.886  -1.412 10.9448 32.8237 9.13724 40.6576 -36.972 11.6475 -99.173  -89.34 1.94645   -18.4 15.5214 -24.298  -62.24   -21.9 42.0848  48.349 25.5659 -90.531 -194.66 -9.2923 20.9969  21.304  20.947 20.4128 21.1603 14.8919
 -17.241 -1.8986   10.01 33.8257 12.7385 41.6007 -33.593 13.5523  -95.99 -87.897 3.15374 -13.421 19.3094 -20.341 -58.193 -20.032  40.444 49.3112  26.512 -68.214 -163.83 -10.608 20.9977 21.2961 20.9984 20.4197 21.1688 14.8922
 -17.383 -2.0931 9.65041 34.2526 17.2209  42.479 -29.163 15.9782 -91.857 -85.274 4.69046  -8.428 23.0122 -15.863  -53.39 -17.377 38.7704 49.9318 27.8885 -44.622 -127.87 -11.916 21.0458 21.2858 21.0396 20.4248 21.1783 14.8925
 -17.319 -1.9976  9.8534 34.1052 22.2617 43.3713 -23.973 18.7945 -87.032 -81.794  6.5313  -3.588 26.2509 -11.294 -48.137   -14.4 37.0702 50.1904 29.6435 -22.205 -90.189 -13.117 21.1298 21.2721 21.0712 20.4308 21.1888 14.8927
 -17.096 -1.6679 10.4985 33.5078 27.4902 44.3858 -18.367 21.8254 -81.763 -77.822 8.59603 0.98601 28.8093 -6.9655 -42.715  -11.58 35.3467 50.0776 31.6911 -0.0871   -51.8 -14.112 21.2367 21.2538 21.1029 20.4403 21.2003  14.893
 -16.839 -1.2155 11.3741 32.6831 32.5346 45.6061 -12.697 24.8784 -76.274 -73.704 10.7194 5.22238 30.6255 -3.0819 -37.378 -9.3034 33.6021   49.59 33.9244 23.9313 -13.046  -14.83  21.356 21.2341 21.1411 20.4543  21.212 14.8933
  -16.68 -0.7639 12.2326 31.8859 37.0569 47.0488 -7.2915 27.7759 -70.753 -69.736 12.6968 9.04967 31.7234 0.26287 -32.347 -7.8213 31.8507 48.7501 36.2514 49.8136 24.1255 -15.224  21.479 21.2186 21.1805 20.4716 21.2224 14.8936
 -16.703 -0.4035 12.8462 31.3418 40.7851 48.6942 -2.4101 30.4284 -65.316 -66.119 14.3474 12.3877 32.1569 3.08014 -27.784 -7.2056 30.1323 47.6411   38.63 74.3642 56.7835  -15.25 21.5937 21.2101 21.2103 20.4894 21.2306 14.8938
 -16.967 -0.1785 13.0299  31.222 43.5436 50.5447 1.80145    32.9  -59.98 -62.895 15.5241 15.1716 31.9923 5.49956 -23.743 -7.3073 28.4895 46.4155 41.0768 93.6688 83.1945  -14.87 21.6852 21.2049 21.2265 20.5015 21.2383 14.8941
 -17.551 -0.0961 12.6485 31.6391 45.2697 52.6327 5.31968 35.3952 -54.655 -59.915 16.1074 17.3685 31.3079 7.73031 -20.171 -7.7719 26.9355 45.2659 43.6457 105.426 103.364 -14.096 21.7391 21.1984 21.2323 20.5012 21.2495 14.8944
 -18.516 -0.1391 11.6406 32.6328 46.0047  54.979 8.21005 38.1807 -49.194 -56.908 16.0178 18.9817 30.1908 9.92287 -16.965  -8.133 25.4643 44.3814 46.4066 108.899 117.943 -12.998 21.7516 21.1899 21.2295 20.4855 21.2684 14.8946
 -19.846 -0.2581 10.0561 34.1461 45.8705 57.5691 10.5962 41.5127 -43.437 -53.574 15.2417 20.0615  28.729 12.0441 -14.022 -7.9312 24.0994  43.917 49.4476 103.828 127.352 -11.682 21.7338 21.1802  21.215 20.4552 21.2972 14.8949
 -21.443 -0.3709 8.05319 36.0318 45.0355 60.3548 12.6366 45.5807 -37.236 -49.658 13.8463  20.708 26.9989    13.9 -11.245 -6.8078 22.9236 43.9796  52.878 90.3776 131.855 -10.226 21.7048 21.1671 21.1863 20.4128 21.3365 14.8951
 -23.196 -0.4177  5.8363  38.106 43.6791 63.2489 14.4941 50.4426 -30.474 -44.993 11.9578  21.035 25.0666 15.2708 -8.5301 -4.5803 22.0384 44.6067 56.7848 70.5783 132.315 -8.6913 21.6819 21.1448 21.1486 20.3594 21.3858 14.8954
 -25.005 -0.4162 3.59519 40.1991 41.9799 66.1245  16.311 55.9836 -23.109 -39.532 9.73796  21.134   23.01 16.0448 -5.7586 -1.2893 21.5026 45.7502 61.1613  48.893 130.164 -7.1339 21.6755 21.1096 21.1115 20.2957 21.4416 14.8956
 -26.747 -0.4386 1.47646 42.1788 40.1106 68.8331 18.1922 61.9424 -15.198  -33.35 7.37847 21.0776 20.9319 16.2599  -2.842 2.82321 21.3217 47.2923 65.8929 30.1042 126.435 -5.5746 21.6931 21.0646 21.0794 20.2251 21.4965 14.8959
 -28.263 -0.5513 -0.4319 43.9666 38.2011  71.226 20.1836 67.9824 -6.8846 -26.607 5.07423 20.9212  18.949 16.0313 0.22865 7.40051 21.4661 49.0772 70.8029 16.3911 121.223 -3.9592 21.7418 21.0183 21.0478 20.1544 21.5413 14.8961
 -29.379 -0.7623 -2.0876 45.5285 36.2948 73.1864 22.2676 73.7719 1.63188 -19.508 2.99438 20.6968 17.1542 15.4511 3.38564 12.0728 21.8828 50.9455 75.7065 6.84756 114.118 -2.2102 21.8242 20.9778 21.0099 20.0905 21.5708 14.8964
 -29.926 -0.9994 -3.4542 46.8406 34.3512 74.6878  24.389 79.0529 10.1546 -12.254 1.28439 20.4306 15.5747 14.5618 6.54314 16.5396  22.511 52.7734  80.435 0.23505 105.243 -0.3149 21.9336 20.9448  20.965 20.0394 21.5861 14.8966
 -29.781 -1.1474 -4.4872 47.8747  32.299 75.8293 26.4823 83.6763 18.5405 -4.9912 0.05231 20.1633 14.1838 13.4145 9.64759 20.6222  23.294 54.4969 84.8331 -2.6243 95.4645 1.65422 22.0533  20.919 20.9199 20.0079 21.5911 14.8968
 -28.942 -1.1205 -5.1615 48.6167 30.0865 76.7805 28.4732 87.5849 26.7273 2.20248 -0.6681 19.9384 12.9505 12.1382 12.6967 24.2647 24.1724 56.0845 88.7454 -0.0304 85.6059 3.58677 22.1675 20.9022 20.8808 20.0014 21.5865 14.8971
 -27.539 -0.9071 -5.4922 49.0802 27.6903 77.6696 30.2668 90.7603  34.719 9.30751 -0.9196 19.7635 11.8701 10.9352 15.7363  27.491 25.0611  57.468  92.017 7.70575 75.8514 5.40288 22.2751 20.8984 20.8475 20.0193  21.569 14.8973
 -25.766 -0.5459 -5.5204 49.2914 25.0968 78.5031 31.7309 93.1707 42.5238 16.3084 -0.7783 19.5987 10.9719  10.002 18.8169 30.3507 25.8466 58.5001 94.5053 17.6343 65.6799 7.09134 22.3906 20.9082 20.8165 20.0535  21.536 14.8975
 -23.822 -0.0713 -5.2871 49.2661 22.2944 79.1626 32.6966 94.7555 50.0877 23.1444 -0.3212 19.3873 10.2929 9.46696 21.9317 32.8894 26.4007 58.9688 96.0734 26.7364 54.5929 8.67536 22.5289  20.925 20.7903 20.0919 21.4898 14.8977
 -21.876 0.50898 -4.8274 49.0104 19.2924 79.4742  33.019 95.4631 57.3002 29.7385 0.37125 19.0879 9.81715 9.40409 25.0172 35.1832  26.602 58.6614 96.5839 34.2228 42.6952 10.1576 22.6889 20.9399 20.7782 20.1243 21.4369 14.8979
 -20.057 1.20022 -4.1769 48.5393 16.1615 79.3036 32.6827 95.3115 64.0743  36.088 1.22737 18.6863 9.47572 9.87447 28.0231 37.4075 26.3822 57.4607 95.9395 40.7405 30.1279 11.5297 22.8523 20.9514 20.7861 20.1457 21.3846 14.8982
 -18.439 2.00643 -3.3757 47.8849 13.0773 78.6017 31.8775 94.4026 70.4158 42.2937 2.22583 18.1978 9.25103 10.9276   30.98 39.8301 25.7688 55.4172 94.1496 45.9712 16.2306 12.8152 23.0016 20.9667 20.8074 20.1562 21.3383 14.8984
 -17.007 2.95152 -2.4741 47.0926 10.3199 77.3818 30.9759 92.8697 76.4132  48.468 3.42974  17.677 9.26475 12.5743  34.014 42.6915 24.8892 52.7392 91.3482 47.8611 -0.1814 14.0613 23.1324 20.9918 20.8296 20.1572 21.3012 14.8986
 -15.659 4.10443 -1.5151 46.2007 8.23088 75.6883  30.426  90.818 82.1757 54.6193  4.9752 17.2092 9.73326 14.7704  37.313 46.0869 23.9299 49.7131 87.7391 44.6442 -19.222 15.2792 23.2458 21.0243 20.8467 20.1492 21.2757 14.8988
 -14.259 5.55806 -0.4918 45.2047 7.14839 73.5853 30.6234 88.3154 87.7809  60.625 6.99933 16.8704 10.8387 17.4258  41.067 49.9486 23.0817 46.6079 83.5167 36.7358 -39.193 16.4121  23.336 21.0558 20.8644 20.1332 21.2639  14.899
 -12.705 7.38185 0.66803 44.0405 7.32399 71.1465 31.8147 85.4113 93.2483 66.2776 9.56398  16.702 12.6321  20.428 45.3956 54.1037 22.4979 43.6007 78.8213 25.7443 -58.164 17.3706 23.3938 21.0787 20.8918 20.1119 21.2669 14.8992
 -10.942 9.57786 2.07147 42.6093 8.84914 68.4458  34.056 82.1526 98.5332 71.3351 12.6448 16.7157 15.0301 23.6404 50.3084 58.3384 22.2687 40.7406 73.7518 12.0284  -76.26 18.0907 23.4173 21.0899 20.9308 20.0889 21.2841 14.8994
  -8.948 12.0535 3.80182 40.8349 11.6266 65.5678 37.2045 78.5846  103.54 75.5553 16.1618 16.9059 17.8833 26.8989 55.7072 62.4401  22.409 37.9652 68.4064 -5.8868  -95.98 18.5715 23.4116 21.0905 20.9718 20.0662 21.3116 14.8996
 -6.7268 14.6317 5.85895 38.7234 15.3916 62.6341 40.9401 74.7547 108.142 78.7347 19.9855 17.2476 21.0303 30.0656 61.3979 66.2251 22.8487   35.14 62.8982 -28.673 -119.48 18.8794   23.38 21.0808 21.0038 20.0417 21.3437 14.8998
 -4.3235 17.1061 8.13704 36.3838 19.7781  59.821 44.8357  70.742 112.218 80.7662 23.9289 17.6869 24.2997 33.0868 67.1064 69.5662 23.4233 32.0971 57.3408  -53.58  -145.8 19.1153 23.3178 21.0568 21.0242  20.012 21.3779 14.8999
 -1.8211 19.3165 10.4667 33.9847 24.4059 57.3393 48.4562 66.6899  115.68 81.6965 27.7816 18.1574 27.5191 35.9526 72.5141 72.4178 23.9147 28.6919 51.8545 -75.744 -171.53 19.3501 23.2135 21.0148 21.0373 19.9769 21.4153 14.9001
 0.70722 21.1974 12.7024 31.6708 28.9507 55.3626  51.454 62.7949 118.512 81.7264 31.3794 18.6074 30.5598 38.5942 77.3154 74.7965 24.1413  24.872 46.5926 -91.928 -193.17 19.5889 23.0624 20.9573  21.045 19.9393 21.4565 14.9003
 3.26225 22.7778 14.7973 29.4935 33.1799 53.9354 53.6361 59.2416 120.783 81.1256 34.6536 19.0041 33.3613 40.8575  81.282 76.7104 24.0324 20.7109  41.737 -102.31 -208.03 19.8097 22.8769 20.8928 21.0454 19.9021 21.4983 14.9005
 5.92603  24.146 16.8123 27.4042 36.9566 52.9369 54.9706 56.1306 122.635 80.1203 37.6264 19.3081 35.8881 42.5595 84.3018 78.1047 23.6354 16.3883 37.4549 -108.51 -213.49 20.0138 22.6806 20.8297 21.0393 19.8664 21.5347 14.9007
 8.78423 25.3981  18.858 25.3071 40.2164 52.1361 55.5259 53.4562 124.229  78.842 40.3624  19.444 38.0747 43.5383 86.3757 78.8852 23.0589 12.1291 33.8456 -110.52 -206.69 20.2089 22.4938 20.7723 21.0344 19.8328 21.5623 14.9009
 11.8469  26.607 21.0209 23.1283 42.9398 51.3029 55.4186 51.1495 125.725 77.3567 42.9162 19.3157 39.8259 43.7179  87.604 78.9875 22.4088 8.14297  30.925 -106.42 -185.95 20.3698 22.3265 20.7229 21.0378 19.8035 21.5813  14.901
 15.0393 27.8163 23.3169 20.8578 45.1299 50.3007 54.8214 49.1498 127.274 75.7225 45.3017 18.8556  41.062 43.1833  88.188 78.4231 21.7598 4.60322 28.6699 -95.245 -152.09 20.4567 22.1861 20.6853  21.047 19.7812 21.5921 14.9012
 18.2298 29.0366 25.6813 18.5562 46.7847 49.1198 53.9757  47.449 129.036 74.0109 47.4772 18.0508 41.7752 42.1645  88.416 77.2879 21.1613 1.66323 27.0879 -79.397 -108.58 20.4767 22.0785 20.6634 21.0522 19.7689 21.5939 14.9014
 21.2598 30.2409 27.9864 16.3397 47.8868 47.8716 53.1547  46.102 131.131 72.2965 49.3489 16.9311 42.0526 40.9148 88.6158  75.769 20.6518  -0.518  26.247 -63.612 -60.892 20.5089 22.0028 20.6563 21.0461 19.7693 21.5873 14.9016
 23.9911 31.3708 30.0786 14.3498 48.4279 46.7579 52.5979 45.2207 133.599 70.6538 50.8115 15.5363 42.0293 39.6013 89.0992 74.1464 20.2533 -1.7834 26.2327 -51.207 -14.512 20.6452 21.9514 20.6567  21.033 19.7833 21.5773 14.9017
  26.374 32.3657 31.8266 12.7037 48.4259 45.9946 52.4336 44.9354 136.378 69.1542 51.7988 13.9092 41.8092 38.3029 90.1012 72.7462 19.9619 -2.0335 27.0702 -41.862 26.9568 20.9049 21.9143 20.6576 21.0234 19.8096 21.5696 14.9019
 28.4845 33.2029 33.1716 11.4411 47.9061 45.7157 52.6285 45.3157 139.316 67.8375 52.3126 12.1194 41.4331 37.0644 91.7227 71.8386 19.7684 -1.2936 28.6783 -33.507 61.7174 21.2307 21.8832 20.6587 21.0219 19.8457 21.5683  14.902
 30.4775 33.9087 34.1471 10.5105 46.8887  45.929 53.0261 46.3214 142.217 66.6978 52.4243 10.2778  40.905  35.912 93.9337 71.5477  19.692 0.26995 30.8905 -25.696 88.8716 21.5679 21.8531 20.6674 21.0234 19.8874 21.5739 14.9022
 32.4803 34.5265 34.8479 9.81033 45.3988 46.5479 53.4546 47.8304 144.931 65.7287 52.2576 8.52203 40.2152 34.8273 96.6408 71.8457 19.7834 2.40645 33.5216 -20.172 108.157 21.9238  21.819 20.6903 21.0221 19.9273 21.5849 14.9024
 34.5084 35.0827 35.3655 9.25434  43.467 47.4431  53.799 49.6982 147.396 64.9937  51.942 6.97597 39.3408 33.7447 99.7379 72.6221 20.0812 4.85077 36.4071 -18.004 120.484 22.3529  21.775 20.7269 21.0194 19.9587 21.5994 14.9025
 36.4624 35.5936 35.7393  8.8174 41.1085 48.4752 53.9861 51.7906 149.601 64.6385 51.5413 5.71837 38.2597 32.5983 103.083 73.7589 20.5764 7.35293 39.3822 -17.459 127.792  22.916 21.7147 20.7728 21.0217 19.9803 21.6158 14.9027
 38.1877 36.0752 35.9562 8.53049 38.3163 49.5143 53.9495 53.9825 151.528 64.8388 51.0104 4.77451  36.975 31.3555 106.459 75.1684 21.2301 9.69066 42.2652   -15.8 131.906 23.6432 21.6366 20.8264  21.029 19.9955 21.6322 14.9028
 39.5414 36.5288 35.9957 8.43237 35.1076 50.4381 53.6422 56.1367 153.123 65.7287 50.2396 4.10777 35.5262 30.0016 109.595 76.7814 22.0107  11.698 44.8806 -12.554 133.746 24.4959 21.5452 20.8906 21.0335 20.0088 21.6449  14.903
 40.4469 36.9356 35.8741 8.52056 31.5874  51.106 53.0659 58.0734 154.318 67.3339 49.1402 3.62031 33.9778 28.5289 112.228 78.4853 22.9066  13.289 47.0736 -9.8861 133.561 25.3463 21.4488 20.9666 21.0294 20.0218 21.6503 14.9031
 40.8922 37.2408 35.6502  8.7394 27.9608 51.3415 52.2568 59.5551 155.025 69.5284 47.6738 3.17454 32.3884 26.9492 114.141 80.0724 23.8995 14.4331 48.6722 -9.5534 131.872 26.0165 21.3584 21.0485 21.0224 20.0349 21.6474 14.9033
 40.8692 37.3144 35.4022 9.00475 24.4766 50.9446 51.2336 60.3022 155.119 72.0327  45.828 2.62795 30.8094 25.2863 115.154 81.2544 24.9349 15.0936 49.4454 -10.555  129.63 26.3649 21.2822 21.1267 21.0226 20.0499 21.6375 14.9034
  40.336 36.9705 35.2118 9.22635 21.3542 49.7307 49.9694 60.0353  154.41 74.4467 43.6109 1.86789 29.3141 23.5499 115.095 81.7241 25.9382 15.1967 49.1314 -10.485 127.353 26.3461 21.2228 21.1966 21.0324 20.0695 21.6228 14.9036
 39.2619 36.0741 35.1696 9.30802 18.7398 47.5878 48.4251 58.5378 152.681 76.3132 41.0851 0.84119   27.98 21.7251 113.834 81.2271 26.8638 14.6585 47.5247 -8.5461 124.605 26.0216 21.1826 21.2598 21.0437 20.0943  21.606 14.9037
 37.7002  34.632 35.3725 9.15179  16.687 44.5101 46.5836 55.7037 149.751 77.1883 38.3913 -0.4171 26.8465 19.7749 111.329 79.6104 27.7195 13.4183 44.5389  -6.248 120.413 25.5332 21.1629  21.318 21.0467 20.1208 21.5893 14.9038
 35.8066 32.7782 35.8959 8.68428 15.1589 40.5777 44.4486 51.5443 145.536 76.7138 35.7206 -1.7867 25.9181 17.6345 107.666  76.834 28.5362   11.43 40.2004  -4.804 114.261 25.0405 21.1603 21.3665 21.0386 20.1442 21.5734  14.904
 33.7945 30.6986 36.7596 7.88524 14.0719  35.934 42.0487 46.1876 140.087 74.6962 33.2722 -3.1016 25.1714 15.2404 103.065  72.986 29.3297 8.65092 34.6227 -2.9442 106.246 24.6674 21.1635 21.3979 21.0218 20.1627  21.559 14.9041
 31.8839 28.5651  37.921 6.79015 13.3617 30.7835 39.4559  39.876 133.583   71.14 31.2286 -4.1927 24.5486 12.5852 97.8447 68.2894    30.1 5.07303 28.0054  1.6667 96.2524 24.4834  21.159 21.4092 20.9965 20.1796 21.5456 14.9043
 30.2836 26.4919 39.3007 5.46605 13.0118  25.368 36.7702 32.9209 126.265 66.1866  29.739 -4.9393 23.9996 9.70748 92.3376 63.0428 30.8487 0.76834 20.6256 9.36909 83.5363 24.4944 21.1383 21.4061 20.9584 20.1991 21.5313 14.9044
 29.2033 24.5532 40.8237 3.97736  13.049 19.9209 34.0743 25.6323 118.367 60.0187 28.9158 -5.3133 23.5322 6.65869 86.8225 57.5209 31.5914 -4.0793 12.8098 17.8356 67.2898 24.6555 21.1016 21.3977 20.9046  20.224 21.5155 14.9045
 28.8587 22.8445 42.4572 2.35695 13.5416 14.6514  31.421 18.2878 110.102 52.8318  28.843 -5.3914 23.1948 3.52427 81.5228 51.9312 32.3536 -9.1719 4.89915 24.6733 47.8326 24.9221 21.0579 21.3904 20.8405 20.2551 21.5008 14.9046
 29.4179 21.4859 44.2098 0.60675 14.5732  9.7515 28.8486 11.1456 101.676 44.8656 29.5641  -5.339 23.0167 0.44735  76.621 46.4333 33.1409 -14.146 -2.7887 29.7287 26.7975 25.2955 21.0155 21.3877 20.7774 20.2935 21.4914 14.9048
 30.9072 20.5495 46.0885   -1.27 16.1674 5.37111 26.3761 4.44868 93.2797 36.4093 31.0545  -5.372  22.965 -2.4068 72.2145 41.1397 33.9153 -18.649 -9.9884 34.2141 5.78198 25.8172 20.9762  21.395 20.7227 20.3396 21.4887 14.9049
 33.1754 20.0237 48.0604 -3.2398 18.2339 1.57175 23.9935 -1.5993  85.054 27.7719 33.2068 -5.7042 22.9503 -4.9477 68.2489 36.0842  34.607 -22.396  -16.49 38.1702 -14.976 26.5153 20.9412   21.42 20.6752 20.3929 21.4883  14.905
  35.956 19.8632 50.0579 -5.2387 20.5819  -1.677 21.6702 -6.8491 77.0678 19.2536 35.8356 -6.4827 22.8684 -7.2354 64.5246 31.2195 35.1643 -25.191 -22.119 39.6618 -36.381 27.3491 20.9182 21.4672 20.6298 20.4528 21.4849 14.9051
 38.9494 20.0386 52.0018 -7.1874 22.9656 -4.4384 19.3612 -11.191  69.312 11.1237 38.7048 -7.7333 22.6503 -9.4374 60.7741  26.463 35.5914 -26.931 -26.734  36.977 -58.514 28.1956 20.9162 21.5324  20.588 20.5194 21.4771 14.9053
 41.8626 20.5235 53.8107  -8.998 25.1141 -6.7354  16.995 -14.532 61.7143  3.6021 41.5789 -9.3474 22.2868 -11.705 56.7343 21.7594 35.9321 -27.628 -30.243 30.7458 -79.451 28.8882 20.9364 21.6052 20.5597 20.5935 21.4676 14.9054
 44.4456 21.2568 55.3962 -10.574 26.7574 -8.5306 14.4837  -16.79 54.1832 -3.1431 44.2718 -11.117 21.8114 -14.099 52.1839 17.1229 36.2298 -27.404 -32.625 22.9153  -96.88 29.3024 20.9732 21.6779 20.5528 20.6755 21.4589 14.9055
 46.5492 22.1406 56.6623 -11.815 27.6766 -9.7763 11.7725 -17.916 46.6505 -9.0008 46.6493 -12.807 21.2765 -16.614 46.9629 12.6266 36.5056 -26.469 -33.911 14.0116 -110.85 29.4296 21.0255 21.7508 20.5656 20.7613 21.4504 14.9056
 48.1504 23.0856 57.5136 -12.628 27.7475 -10.482 8.85577 -17.939 39.0646  -13.96 48.5974 -14.238 20.7314 -19.232 40.9752 8.33306 36.7672  -25.07 -34.177 2.32385  -124.4 29.3533 21.1011  21.828 20.5895 20.8392 21.4401 14.9057
 49.3027 24.0379 57.8643 -12.935 26.9439 -10.724 5.73246 -16.993 31.3601 -18.153 50.0168 -15.318 20.1928  -21.94 34.1933 4.22484 37.0241 -23.459 -33.569 -13.416 -140.61 29.1437 21.2083 21.9084 20.6181 20.8939 21.4274 14.9058
 50.0548 24.9543 57.6549 -12.688 25.3183 -10.595 2.36841 -15.272 23.4603 -21.826 50.8577  -16.05 19.6484 -24.701 26.6787 0.21232   37.28 -21.864  -32.33 -31.109 -159.52 28.7792 21.3414 21.9831 20.6523 20.9158 21.4152  14.906
 50.4247 25.7855 56.8823 -11.893 22.9816 -10.156 -1.2805 -12.959 15.3094 -25.236 51.1406 -16.488 19.0828 -27.423 18.5849 -3.7833 37.5275 -20.447 -30.765 -46.286  -178.5 28.1689   21.48 22.0409  20.697  20.907  21.408 14.9061
 50.4316 26.4873 55.6221 -10.631  20.094 -9.4288 -5.2005 -10.181 6.90348 -28.548  50.943 -16.695 18.4877 -30.011 10.1309 -7.7637 37.7671 -19.266 -29.141 -55.826 -194.58 27.2377 21.6058 22.0751  20.754 20.8779 21.4097 14.9062
 50.1369 27.0319 54.0149 -9.0391 16.8711 -8.4478 -9.2633 -7.0367 -1.6932  -31.81 50.3877 -16.728 17.8868 -32.436 1.56221 -11.675 38.0193 -18.272 -27.598 -59.939 -205.56 25.9704 21.7139 22.0859  20.819 20.8387 21.4189 14.9063
 49.6793 27.4317 52.2309 -7.2816 13.5803 -7.2823  -13.22 -3.6232 -10.341 -34.977 49.6341 -16.647  17.367 -34.708 -6.8849 -15.468  38.308 -17.346 -26.132 -60.386 -209.11 24.3784 21.8083 22.0753 20.8865  20.794   21.43 14.9064
 49.2565  27.754 50.4346 -5.5194 10.5107 -6.0245 -16.739 -0.0355 -18.817 -37.927 48.8494 -16.522 17.0596 -36.812 -14.996 -19.114 38.6288 -16.343 -24.629 -57.488 -202.48 22.4677 21.8892 22.0436 20.9556 20.7458 21.4393 14.9065
  49.032 28.0896 48.7516 -3.8813 7.92954  -4.753 -19.468 3.66991 -26.814 -40.459 48.1784 -16.439 17.0819 -38.673 -22.572 -22.567 38.9426 -15.125 -22.917 -50.011 -183.96 20.2607 21.9466 21.9928 21.0283 20.6983 21.4481 14.9066
 49.0591 28.5129 47.2569 -2.4504 6.04505 -3.4957 -21.077 7.49922 -33.981 -42.319 47.7418 -16.476 17.4677 -40.181 -29.421 -25.752 39.2062 -13.557 -20.786 -38.065 -154.25 17.8277 21.9687 21.9317 21.1007 20.6592 21.4579 14.9067
 49.2974 29.0802 45.9898 -1.2775 4.98139  -2.212 -21.316 11.4978 -39.979 -43.279 47.6325 -16.688 18.1089  -41.21 -35.382 -28.626 39.4115 -11.493 -18.003 -25.005 -116.47 15.2676 21.9552 21.8721 21.1605 20.6334 21.4656 14.9068
 49.6508 29.8163 44.9678 -0.3879  4.7748 -0.8129 -20.066 15.6901 -44.559 -43.225 47.8732 -17.108 18.7824 -41.645 -40.346 -31.245 39.5848 -8.7849 -14.368 -15.526  -75.15 12.6505 21.9177   21.82 21.1968 20.6191 21.4658 14.9069
 49.9583 30.6696 44.1846 0.22612 5.39231 0.79505 -17.359 20.0481 -47.595 -42.161 48.3886 -17.759 19.2612 -41.456 -44.293 -33.748 39.7437  -5.331  -9.788 -11.808 -34.446 10.0022 21.8663 21.7712 21.2116 20.6092 21.4557  14.907
 50.0022 31.5266 43.6052 0.61424 6.74925 2.68051 -13.353 24.5097 -49.087 -40.157 49.0257 -18.627 19.3981 -40.775 -47.281 -36.252 39.8796 -1.1038 -4.3202 -12.026 3.16428 7.34388 21.8018 21.7183 21.2177 20.5973 21.4375 14.9071
 49.5924 32.2994 43.1671 0.85885 8.71788  4.8608 -8.2841 28.9849 -49.134 -37.302 49.5946 -19.631 19.1269 -39.842 -49.426 -38.773 39.9814 3.85154  1.8483 -12.871 36.3834 4.70524 21.7254 21.6591 21.2263 20.5807 21.4139 14.9072
 48.6472 32.9702 42.7996 1.04587 11.1494 7.27152 -2.4244  33.328 -47.905 -33.746 49.9115 -20.638 18.4274 -38.878 -50.864  -41.24 40.0604 9.43004 8.44465 -13.099 64.1967 2.10946 21.6459 21.5989 21.2409  20.559 21.3862 14.9073
 47.1965 33.5448 42.4473 1.23826 13.9104 9.77275 3.93227 37.3286 -45.621 -29.741 49.8334 -21.507 17.3089 -38.003 -51.713 -43.563 40.1561 15.4804 15.1599 -14.049 85.8001 -0.4231 21.5738 21.5442 21.2609 20.5317  21.355 14.9074
 45.3484 34.0001 42.0774 1.47347 16.8956 12.1989 10.4742 40.7497 -42.541 -25.617 49.2842 -22.138 15.8123 -37.247 -52.054 -45.662 40.3152 21.8077 21.6772 -16.653  101.44 -2.8495 21.5155 21.4959 21.2872 20.4996 21.3211 14.9075
 43.2565 34.2916 41.6679 1.78147 19.9975 14.4136 16.8848 43.3861 -38.916 -21.702 48.2591 -22.507 14.0176 -36.569 -51.932 -47.483 40.5606 28.1698 27.6862  -19.21 112.559 -5.0761 21.4731 21.4488 21.3206 20.4669 21.2861 14.9075
 41.0636  34.386  41.193 2.19499 23.0632 16.3437 22.8678 45.1124 -34.934 -18.224 46.8025 -22.673 12.0501 -35.904 -51.365 -48.994 40.8917 34.3062 32.9147 -19.128  120.69  -6.961 21.4502 21.3992  21.355 20.4396 21.2522 14.9076
 38.8692 34.2768 40.6364 2.73039 25.8799 17.9868 28.1643 45.8976 -30.703 -15.267  45.013 -22.761 10.0692 -35.228 -50.386 -50.178  41.315 40.0006 37.1699  -16.16 126.511 -8.3591 21.4515 21.3507 21.3781 20.4228 21.2212 14.9077
 36.7723 33.9884  40.013 3.36635 28.2037 19.3964 32.5633 45.7861 -26.288  -12.81 43.0686 -22.901 8.24006 -34.574 -49.068 -51.034 41.8528 45.1191 40.3552  -12.72 130.016 -9.1772 21.4747 21.3099 21.3805 20.4185 21.1948 14.9078
 34.9111 33.5664 39.3591 4.05666 29.8213 20.6583 35.9184 44.8799 -21.759 -10.778 41.2017 -23.161 6.71215 -33.931 -47.534 -51.567 42.4955 49.5946  42.464 -10.779 131.522 -9.3845 21.5098 21.2791  21.364 20.4255 21.1753 14.9079
 33.4383 33.0568 38.7045 4.76337 30.6127 21.8621 38.1641 43.3413 -17.202 -9.0742 39.6424 -23.514  5.6166 -33.176 -45.911 -51.754 43.1634  53.393 43.5711 -9.5295  131.88 -8.9705 21.5436 21.2575 21.3376 20.4418 21.1645  14.908
 32.4842 32.4981 38.0576 5.47815 30.5813  23.064 39.3197 41.3812  -12.69 -7.5886 38.5793 -23.841 5.07069 -32.132 -44.299 -51.525 43.7355 56.4844 43.8115 -6.7961  131.61 -7.9084 21.5699  21.246 21.3059 20.4664 21.1627 14.9081
 32.1323 31.9243 37.3954 6.22981 29.8249 24.2531 39.4686 39.2117 -8.2617 -6.2477 38.1188  -23.98 5.14489 -30.703 -42.762  -50.81 44.1099 58.8136 43.3332 -2.0608 130.341 -6.1852 21.5932 21.2485 21.2653 20.4987 21.1684 14.9081
 32.3905 31.3633 36.6608 7.07676 28.4788 25.3567 38.7261 37.0066 -3.9275  -5.057 38.2423 -23.782 5.81532 -28.938 -41.344  -49.59 44.2441 60.2961 42.2617 2.90981 127.191 -3.8565 21.6216 21.2677 21.2135 20.5365 21.1787 14.9082
 33.1777 30.8374 35.7897 8.07244  26.696 26.2935  37.228 34.9199 0.32002 -4.0754 38.8042 -23.156 6.95782 -26.959 -40.066 -47.893 44.1577 60.8543 40.6946 6.71912 121.727 -1.0414 21.6578 21.3017 21.1563 20.5755 21.1892 14.9083
 34.3342 30.3863 34.7342  9.2429 24.6475 27.0364 35.1253 33.1221 4.48464 -3.3542 39.5728 -22.075 8.36423 -24.874 -38.914 -45.729 43.9004 60.4574 38.7006 10.5081 114.102 2.12904 21.6974 21.3447 21.1036 20.6102 21.1937 14.9084
 35.6508 30.0782 33.4524 10.6058  22.488 27.6319 32.5543 31.7894 8.53896 -2.9099 40.2832 -20.571 9.78747 -22.755 -37.858 -43.049  43.512 59.1395 36.3247 16.5057 104.214 5.51881 21.7357 21.3937 21.0599 20.6353 21.1851 14.9085
 36.9222 29.9714 31.9208 12.1676 20.3164 28.1615 29.6108 31.0411 12.4092 -2.7384 40.7137 -18.724 11.0281  -20.66 -36.861 -39.773 43.0114 57.0068 33.6106 24.9508 91.2773 8.97055 21.7779 21.4492 21.0228 20.6483 21.1598 14.9085
 38.0163 30.0732 30.1881 13.8738 18.1795 28.6877 26.3452 30.8769 15.9613 -2.8502 40.7753  -16.66 11.9928  -18.62 -35.886 -35.852 42.4199 54.2319 30.6137 33.4061 74.3903 12.3344 21.8373 21.5086 20.9894 20.6485 21.1211 14.9086
 38.9266 30.3487 28.3983 15.5858 16.1078 29.2301 22.7664 31.1687 19.0008 -3.2972 40.5402 -14.533 12.6967 -16.619 -34.898 -31.329 41.7795 51.0225 27.3772 39.3467 53.7265 15.5026  21.922 21.5629 20.9634  20.636 21.0794 14.9087
