FP1     FP2     F3      F4      C3      C4      P3      P4      O1      O2      F7      F8      T7      T8      P7      P8      Fz      Cz      Pz      A1      A2      EKG     ATM     EO1     EO2     EM1     EM2     PHO    
 -6.9732 30.0006 60.9815 -23.047 167.433 129.436 262.942 195.607  248.13 235.684 87.1514 42.1781 192.254 139.452 230.185 160.418 -26.176 165.086 270.738 -3.4805  -1.269 -1.3564 24.0488 20.9428 20.8242 20.3583  21.176 14.5002
 -15.159 22.8593 62.2845 -24.359 160.223 118.841 256.046 181.705  237.29 220.805 79.9719 30.8968 178.955 119.425 219.466 138.179 -22.074 171.316 267.133 0.54746 6.61452 -2.3891 23.8456 20.9214 20.8289 20.3292 21.1118 14.5056
 -23.368 15.8586 63.2742 -25.353 151.781 108.497 247.586 167.737 223.433 204.172 72.5332 19.7286 163.828  99.261  205.67 115.326 -17.692 177.135 263.113 6.44861 15.2024 -3.3616    23.7 20.8792 20.8337  20.312 21.0367 14.5109
 -31.556  9.0579 63.9646 -26.034 142.275 98.5129 237.259 153.846 206.347 186.038 64.7712 8.77956 147.002   79.04 188.585 92.1128 -13.085 182.316 258.349 11.1552 23.1091 -4.0748 23.6183 20.8288 20.8327 20.3002  20.958 14.5161
 -39.684 2.45328 64.4026 -26.451 131.892 88.9092 224.882  140.12 186.138 166.717 56.6349 -1.8785 128.612 58.8778 168.316 68.7524 -8.3231 186.589 252.459 12.2003  30.755 -4.4501  23.596  20.778 20.8248 20.2862 20.8843 14.5212
 -47.718 -3.9891   64.64 -26.661 120.809 79.6335 210.444 126.629 163.184 146.582  48.099 -12.187 108.803 38.9041 145.241 45.4722 -3.5166 189.656 245.041 10.0987 38.2601 -4.5384 23.6173 20.7293 20.8148 20.2655 20.8238 14.5263
 -55.612 -10.273 64.7127 -26.705 109.198 70.5875 194.078 113.456 138.031 126.062 39.1875 -22.059 87.7578 19.2387  119.88 22.5523 1.17086 191.215  235.73 6.66823 43.5466 -4.4568 23.6608 20.6848 20.8072 20.2385 20.7823 14.5313
 -63.312 -16.358 64.6499 -26.613  97.231 61.6647 176.006 100.711 111.288 105.621 29.9964 -31.372 65.7205 -0.0076 92.7818  0.3144 5.55019 191.011 224.277 1.86498 43.2876 -4.3218 23.7093 20.6483 20.8011 20.2085 20.7618 14.5363
 -70.771 -22.211  64.508 -26.441 85.0826 52.7795 156.493 88.4897  83.556 85.6969   20.68 -40.004 42.9859  -18.72 64.4325 -20.934  9.4439 188.904 210.602 -6.5574 36.0706 -4.2431 23.7539  20.622 20.7938 20.1776 20.7612 14.5412
 -77.977 -27.869 64.3982 -26.302 72.9141 43.8792 135.811 76.8299 55.3711 66.6594 11.4063  -47.89  19.844 -36.771 35.2177 -40.947 12.7062 184.902 194.788 -19.947 24.3514 -4.3404 23.7909 20.6032  20.788 20.1466 20.7771  14.546
 -85.013 -33.502 64.4883  -26.37 60.8617 34.9366 114.213 65.6786 27.1694 48.7707 2.31107 -55.054 -3.5057 -54.063 5.40294 -59.586 15.2239 179.123 177.002 -36.341 12.8964 -4.7065 23.8141 20.5873 20.7903 20.1165 20.8049 14.5507
 -92.083 -39.458 64.9929 -26.871 49.0187 25.9242 91.9013 54.8731 -0.7474 32.1395 -6.5332  -61.61 -27.037 -70.642 -24.876 -76.874 16.9212 171.709 157.421 -51.879 4.72166 -5.3564 23.8128 20.5725 20.8035 20.0897 20.8399 14.5554
 -99.501 -46.245 66.1494 -28.058 37.4174 16.7882 69.0146 44.1238  -28.22 16.6705 -15.141 -67.788 -50.927 -86.821 -55.608 -93.068 17.7788 162.763 136.183 -63.718 -1.1422 -6.2492 23.7771 20.5605 20.8231 20.0696 20.8783 14.5601
 -107.63 -54.476 68.1632 -30.154 26.0131 7.43609 45.6196 32.9976 -55.218 2.02872 -23.636 -73.961 -75.521 -103.22 -86.868  -108.7 17.8549  152.32 113.368 -70.605 -7.1858 -7.3393  23.705 20.5537 20.8425 20.0595  20.917 14.5647
 -116.84 -64.784 71.1236  -33.26 14.6603 -2.2709 21.7144 20.9243 -81.811 -12.351 -32.261 -80.643 -101.28 -120.65 -118.76 -124.54 17.2814 140.336 88.9845 -71.449 -13.507 -8.5961  23.603 20.5521 20.8597 20.0614 20.9549 14.5692
 -127.42 -77.684 74.9202 -37.263 3.07039 -12.529 -2.7775  7.2364 -108.14 -27.199 -41.376 -88.401  -128.7 -140.03 -151.33 -141.49 16.2481 126.711 62.9626 -65.169 -17.619 -10.001 23.4731 20.5544 20.8794 20.0768 20.9931 14.5736
 -139.49  -93.38 79.2037 -41.798 -9.2271 -23.612 -28.016 -8.7629  -134.4 -43.313 -51.421 -97.727 -158.26 -162.14 -184.62 -160.46 15.0262 111.339  35.167 -52.324  -18.09 -11.521 23.3059 20.5622 20.9049  20.105  21.032 14.5781
 -152.85 -111.58 83.4031 -46.278 -22.883 -35.874 -54.222 -27.698 -160.75 -61.427 -62.891 -108.95 -190.18 -187.51 -218.55 -182.19 14.0294 94.1798 5.46974 -36.171 -16.867  -13.08 23.0928 20.5804 20.9325 20.1411 21.0683 14.5824
  -166.9 -131.36 86.7848 -49.958 -38.668 -49.728 -81.591 -49.984 -187.27 -82.066 -76.291 -122.19 -224.37 -216.28 -252.88 -207.06 13.8808 75.3269 -26.132 -21.452 -16.955 -14.569 22.8372 20.6119  20.955  20.177 21.0982 14.5867
 -180.58 -151.17 88.5473 -52.029 -57.358 -65.603 -110.19 -75.665 -213.83  -105.4 -92.078 -137.38 -260.35 -248.06 -287.11 -234.86 15.4361 55.0457 -59.406 -11.178 -18.634 -15.896 22.5501  20.652 20.9718 20.2054  21.119 14.5909
 -192.46 -168.83 87.9543  -51.75 -79.555 -83.878 -139.85 -104.29 -240.02 -131.13  -110.6 -154.29 -297.19 -281.76 -320.29 -264.66 19.7083 33.7901  -93.81 -4.7197  -19.38 -17.026 22.2392  20.691 20.9896 20.2227 21.1276 14.5951
  -200.8 -181.66 84.4881 -48.615 -105.45 -104.75 -169.95 -134.78 -265.06 -158.39 -132.01 -172.46 -333.46  -315.6 -350.98 -294.64 27.6827 12.2303  -128.4  0.0657 -17.592 -17.987 21.9076 20.7222 21.0112 20.2312 21.1211 14.5992
 -203.75 -186.79 77.9915 -42.502 -134.52 -127.98 -199.26 -165.35  -287.6 -185.59 -156.11 -191.26 -367.04 -347.14 -377.07  -322.1 40.0356   -8.67 -161.67 3.33186 -14.986 -18.848 21.5669 20.7483 21.0288 20.2368  21.099 14.6033
 -199.55 -181.51 68.7743 -33.772 -165.21  -152.5 -225.65 -193.38 -305.56 -210.25 -182.13 -209.79 -395.04 -373.31 -395.78 -343.44 56.7819 -27.525 -191.37 2.92344 -14.317 -19.669 21.2461 20.7772 21.0311 20.2443 21.0644 14.6073
 -186.99 -164.04 57.6764 -23.313  -194.6  -176.1 -245.91 -215.42 -315.92 -228.85 -208.41  -226.9  -413.9 -390.64 -403.71 -354.39 76.9317 -42.439  -214.4 -2.4087 -15.626 -20.455 20.9839 20.8132  21.015 20.2542 21.0244 14.6113
 -165.97 -134.36 46.0773 -12.525 -218.37 -195.32 -255.98 -227.48 -314.95 -236.97 -232.28 -241.14 -419.91 -395.75 -397.39 -350.66 98.3031 -51.155 -227.07 -10.898 -16.181 -21.148 20.8096 20.8531 20.9897 20.2647 20.9909 14.6152
 -138.09 -95.008 35.8185 -3.2359 -231.39 -205.95 -251.74 -225.85 -299.07 -230.27 -250.09 -250.84 -410.29 -386.19 -374.26 -329.13 117.671 -51.561 -225.79 -20.038 -14.205 -21.656 20.7321 20.8879 20.9685 20.2748 20.9776 14.6191
 -106.74 -51.435 29.0196  2.4887 -229.05 -204.31  -230.5 -208.32 -266.25 -205.99 -257.86  -254.4 -384.16 -361.28 -333.91 -289.15 131.382 -42.479 -208.39 -30.097 -11.287 -21.897 20.7474 20.9099 20.9592 20.2847 20.9927 14.6229
 -76.885 -11.518 27.6614 2.75658 -209.13 -188.71 -192.69 -175.62 -217.71  -164.7 -252.73 -250.88  -343.3  -322.6 -278.89 -233.47 136.365 -24.424 -175.46 -43.849 -10.101 -21.852 20.8471 20.9172 20.9598 20.2948 21.0342 14.6267
 -54.408 15.9113 32.7616 -3.3299 -173.35 -160.55 -142.82 -132.07 -158.78 -111.17 -234.88 -240.85 -292.56  -274.4 -215.35 -168.71 131.147 0.02963  -131.2  -62.65 -10.663 -21.553 21.0118 20.9107 20.9672  20.305 21.0938 14.6304
 -45.062 23.3369 43.4709 -14.787 -127.83 -124.17 -89.186 -85.053  -98.33 -53.818 -208.29 -226.73 -239.88  -223.7 -152.68 -104.85 116.328 26.5268  -82.91 -83.917 -10.281 -21.006  21.199  20.891  20.984 20.3154 21.1649 14.6341
 -52.804 6.86527 56.9961 -28.725 -81.506 -85.618 -41.665 -43.165 -46.427  -2.492 -179.71 -212.21 -195.13 -179.25 -101.58 -53.032 94.3138  49.947 -39.182 -103.16 -7.2989  -20.14 21.3476 20.8628 21.0156 20.3266 21.2425 14.6377
  -78.03 -32.447 69.7479 -41.566 -43.329 -51.039 -8.6723 -13.804 -11.144 34.5208 -156.11 -200.96 -167.29 -149.29 -70.731 -22.382 68.5206 65.8279 -7.3033 -117.26 -3.5227 -18.842 21.4071 20.8387 21.0596 20.3393 21.3213 14.6413
 -117.01 -88.842 78.8687  -50.56   -19.6 -25.443 5.08785 -1.5094 3.59636 52.5078 -142.27 -195.35 -161.59 -139.18  -64.17 -17.608 42.4445 71.4943 8.51791 -124.97 -1.9589 -17.034 21.3611 20.8335 21.1037  20.354  21.392 14.6448
  -163.1 -153.49 83.0127  -54.49  -12.96 -12.025 -1.0471 -7.5945 -1.8342 50.6241 -139.84 -195.97 -178.42 -150.37 -80.961 -38.505 18.9493 66.3422 7.36749 -125.67 -3.0533 -14.708 21.2249 20.8536 21.1354 20.3696 21.4436 14.6483
 -208.89 -216.83 82.1885  -53.45 -22.875 -12.009 -24.828 -30.722 -24.144 30.9179 -147.76  -201.8 -213.87 -180.42 -116.65 -80.897 -0.0572 51.3867 -9.3031 -118.73 -4.5268 -11.934  21.024 20.8916 21.1539 20.3867 21.4696 14.6517
 -248.13 -270.83 77.2034 -48.295 -46.777 -24.782 -62.532  -67.78 -58.789 -2.9507 -163.38 -210.88 -261.33 -223.95 -165.17 -138.16  -13.61 28.5746 -38.797 -103.83 -4.9328 -8.8345 20.7792 20.9324 21.1686 20.4082 21.4721 14.6551
 -276.78 -310.29 69.1601 -40.151 -81.123 -48.252 -110.02 -114.73 -101.15  -46.73  -183.5 -221.08 -313.39    -274 -220.33 -202.72 -21.498 0.19694 -77.957 -82.244 -5.9264 -5.5467 20.5092 20.9668 21.1871 20.4373 21.4584 14.6585
 -293.11 -332.89  59.135  -30.09 -122.17 -79.369  -163.3 -167.29 -147.11 -96.226 -205.11 -230.51 -363.46 -323.59 -276.64 -267.36 -24.018 -31.514 -123.61 -57.772 -9.9485 -2.2232 20.2346 20.9969 21.2078 20.4731 21.4356 14.6618
 -297.22 -338.63 48.0165  -18.97 -166.43 -114.69 -218.84 -221.45 -193.25 -147.65 -225.72 -237.74 -406.78 -367.14 -329.66 -326.04 -21.788 -64.613 -172.75 -35.409 -16.531 0.98003 19.9769 21.0274 21.2251 20.5089 21.4077  14.665
 -290.47 -329.14 36.4495 -7.4068 -210.86 -150.82 -273.55 -273.72  -236.8 -197.73 -243.51 -241.76 -440.66 -401.06 -376.05 -374.43 -15.641  -97.52 -222.66 -17.857 -22.331 3.93564 19.7557 21.0561 21.2366 20.5356 21.3776 14.6683
 -274.93 -307.06 24.8499 4.19158 -252.89 -184.72 -324.78 -321.23 -275.53 -243.69 -257.23 -241.86  -464.1 -423.49 -413.51  -409.9   -6.55 -129.01 -270.84 -3.7438 -24.889 6.54719 19.5859  21.075  21.245 20.5475 21.3495 14.6714
 -252.85  -275.4 13.4621 15.5633 -290.46 -213.91 -370.25 -361.68 -307.63 -283.22 -266.08 -237.56 -477.19 -433.68 -440.62 -431.31 4.42956 -158.12 -315.02  9.7458  -24.97 8.72768   19.48 21.0792 21.2515 20.5453 21.3245 14.6746
 -226.34 -237.13 2.43442 26.5454 -321.98 -236.61 -408.07 -393.38  -331.7 -314.49 -269.62 -228.53 -480.53 -431.43 -456.84 -438.64 16.2326 -184.13 -353.25 22.9775 -24.384 10.4189 19.4502 21.0723 21.2505 20.5338 21.3001 14.6777
 -197.18 -194.87 -8.1165  37.025 -346.36 -251.76 -436.81 -415.26 -346.77 -336.28 -267.73 -214.66 -474.82 -416.76 -462.26 -432.57  27.867 -206.45 -383.91 33.6231 -22.711  11.636 19.5054  21.062 21.2342 20.5182 21.2743 14.6808
 -166.81 -150.85 -18.062  46.892 -363.03 -259.04 -455.54 -426.89 -352.37 -347.95 -260.62  -196.1 -460.72 -389.87 -457.41 -414.21 38.4816 -224.69 -405.87 40.0429 -17.526 12.4784 19.6462 21.0536  21.203 20.5021 21.2496 14.6838
 -136.36 -106.93 -27.239 56.0091 -371.85  -258.8 -463.94 -428.49 -348.54 -349.53  -248.8 -173.26 -438.81 -351.29    -443 -385.07 47.4118 -238.63 -418.52 43.5548 -7.8553 13.1016 19.8627 21.0481 21.1664 20.4865 21.2306 14.6868
 -106.69 -64.559 -35.446 64.2025 -373.11 -251.93 -462.24 -420.83  -335.9  -341.6 -232.97 -146.88 -409.72 -302.25 -419.92 -347.12 54.2089 -248.21 -421.79 46.6832 3.45096 13.6679  20.139 21.0462 21.1336 20.4701 21.2197 14.6897
 -78.427 -24.861 -42.453 71.2636 -367.43 -239.69 -451.18 -405.18 -315.51 -325.32 -213.95 -117.92 -374.38 -244.98 -389.33 -302.75 58.6479 -253.49 -416.08 49.9044 11.4437 14.2848 20.4588 21.0505 21.1067 20.4504 21.2164 14.6926
 -52.066 11.3529 -48.022 76.9571 -355.68 -223.57 -431.91  -383.1  -288.8 -302.23 -192.62 -87.566 -334.22 -182.65 -352.74 -254.59 60.7132 -254.64 -402.23  51.139 13.1112 14.9614 20.8088 21.0618 21.0844 20.4246 21.2207 14.6955
     -28 43.4999 -51.933 81.0503 -338.86 -205.07 -405.86 -356.35  -257.4 -274.16 -169.92 -57.123 -291.09  -118.9 -311.97 -205.28 60.5667 -252.04 -381.41  48.647 9.73061  15.623 21.1784 21.0752 21.0701 20.3894 21.2337 14.6983
 -6.5389 71.2072 -54.032  83.372 -318.05 -185.56 -374.61 -326.67 -223.03 -243.04 -146.75 -27.849    -247 -57.215 -268.96 -157.24 58.5072 -246.18 -355.06 43.2837 5.39165 16.1627 21.5558 21.0842 21.0702 20.3438 21.2561 14.7011
 12.1155 94.3273 -54.285 83.8725 -294.32 -166.17 -339.77 -295.61 -187.35 -210.68 -123.98 -0.8132 -203.89 -0.5026 -225.55  -112.5 54.9345 -237.61 -324.67  37.014 2.83914 16.4668 21.9287 21.0864 21.0842 20.2914 21.2844 14.7038
 27.8949 112.934 -52.796 82.6479  -268.7 -147.68 -302.85 -264.43 -151.85 -178.67 -102.34 23.1917 -163.38 49.1852 -183.36  -72.55 50.3091 -226.85 -291.69  29.891 1.10329 16.3975 22.2883 21.0839 21.1015 20.2391 21.3123 14.7066
 40.8602 127.278 -49.798 79.9202 -242.13 -130.57 -265.13 -234.03 -117.73 -148.22 -82.425 43.6666 -126.64   90.65 -143.65 -38.256 45.0994  -214.3 -257.33 19.6722 -2.1457 15.8211 22.6308 21.0787 21.1103 20.1936 21.3348 14.7093
  51.171 137.747 -45.606 75.9938 -215.38 -115.03 -227.62 -204.96 -85.859 -120.13 -64.668 60.3899 -94.351 123.449 -107.19 -9.8751 39.7294 -200.25 -222.57 4.82565 -6.7657 14.7044 22.9518 21.0683 21.1093 20.1575 21.3504 14.7119
 59.0506 144.838 -40.574 71.2135 -189.05 -101.04 -190.99 -177.49 -56.736 -94.823 -49.308 73.3932 -66.764 147.776 -74.332 12.8401 34.5526 -184.93 -188.11 -13.026  -10.01 13.1554 23.2392 21.0466  21.107 20.1301 21.3599 14.7145
  64.761 149.117 -35.057 65.9311 -163.56 -88.419 -155.67  -151.7 -30.522 -72.355 -36.414 82.9335 -43.786 164.323 -45.074  30.495 29.8413 -168.52 -154.43 -30.361 -10.197 11.3531 23.4784 21.0102 21.1095 20.1111 21.3638 14.7171
 68.6038 151.158 -29.384 60.4715 -139.19 -76.962 -121.87 -127.51  -7.087 -52.509 -25.911 89.4467 -25.035 174.072 -19.141 43.8949 25.7691  -151.2 -121.85 -44.552 -9.0659 9.47679 23.6657 20.9628 21.1123 20.1023 21.3604 14.7197
 70.9358 151.481 -23.816 55.0966 -116.12 -66.444 -89.692 -104.83 13.9082 -34.893 -17.592  93.474 -9.9189 178.117 3.88627 53.9098  22.407 -133.18 -90.543 -54.511 -9.4538 7.67973 23.8106 20.9111 21.1059 20.1049 21.3476 14.7222
 72.1418 150.544 -18.525 49.9766 -94.451 -56.684 -59.164 -83.525 32.9209 -19.046 -11.159 95.5795 2.22402 177.559 24.4852 61.3741 19.7435 -114.76 -60.603 -59.344 -11.519 6.05189 23.9235 20.8589  21.087 20.1194  21.325 14.7247
 72.5584 148.744 -13.583 45.1827 -74.251 -47.541 -30.327  -63.51  50.421 -4.5138 -6.2624  96.287 12.0101 173.503 43.1137 67.0239 17.7119 -96.277 -32.125   -58.2 -12.659  4.6106  24.003  20.807 21.0613 20.1462 21.2953 14.7271
 72.4422 146.429 -8.9844 40.7069 -55.537 -38.906 -3.2423 -44.701 66.7991 9.09675 -2.5492 96.0488 19.9867 167.062 60.1568 71.4607 16.2122  -78.13 -5.2337  -51.88 -11.228 3.36346 24.0382 20.7576 21.0349 20.1857 21.2626 14.7295
 72.0081 143.876 -4.6685 36.4928 -38.289 -30.696  22.006 -27.034 82.3175 22.0927 0.32741  95.219  26.643 159.305 75.8994  75.142 15.1175 -60.691 19.9272 -43.817 -8.9311 2.36278 24.0262  20.714 21.0081 20.2363 21.2305 14.7319
  71.442  141.26 -0.5497 32.4708 -22.448 -22.845 45.3481 -10.454 97.1197 34.6948 2.69027 94.0361 32.4052 151.182 90.5357 78.4089 14.2835 -44.259 43.2545 -38.713 -8.5376 1.68536 23.9822 20.6797 20.9789 20.2938 21.2024 14.7343
 70.8329 138.623 3.44667 28.5853 -7.9193 -15.287  66.768 5.10877 111.268 47.0558 4.77771 92.6306 37.6409 143.435 104.205 81.5294 13.5672 -29.002 64.7399 -39.128 -10.123 1.38368 23.9302 20.6553 20.9512 20.3508 21.1823 14.7366
 70.1241 135.862 7.36287 24.8059 5.42237 -7.9412 86.3179 19.7514 124.758 59.2581 6.70222 91.0442 42.6716 136.565 117.016 84.7204 12.8455 -14.946 84.4653 -43.523 -11.003 1.45576 23.8834 20.6382 20.9353 20.3997  21.174 14.7389
 69.1659 132.801 11.2016 21.1265 17.7062 -0.7232 104.084 33.5668 137.477 71.2734 8.47346 89.2581 47.7435 130.847 129.008 88.1148 12.0261 -2.0145 102.547 -48.637 -9.4668 1.83753 23.8373 20.6248 20.9384 20.4366 21.1797 14.7412
 67.8089 129.268 14.9368 17.5586 29.0404 6.43751 120.148 46.6055 149.162 82.9327  10.057 87.2185 52.9525  126.37 140.105 91.7003 11.0414 9.91824  119.09 -53.082 -7.1688 2.42705 23.7848  20.614  20.956 20.4623 21.1988 14.7434
 65.9562 125.128 18.5374 14.1207 39.5109 13.5835 134.583 58.8699 159.443 93.9545 11.4173 84.8543 58.2158 123.096 150.124 95.3069 9.84211 20.9934 134.194 -57.628 -6.8504 3.13555 23.7331 20.6062 20.9744 20.4776 21.2276 14.7456
 63.5607 120.296 21.9822 10.8313  49.191 20.7282  147.46 70.3366 167.924 104.009 12.5157 82.1046 63.3099 120.878  158.83 98.6612  8.4076 31.3495  147.95 -62.707 -8.5805 3.91219 23.6991 20.6003 20.9825  20.483 21.2607 14.7478
 60.5932 114.747 25.2535 7.71039 58.1461 27.8605 158.847 80.9801 174.254 112.779 13.2878 78.9518 67.9428  119.45 165.992 101.471 6.75405 41.1161 160.409 -66.912 -9.6897 4.71734 23.6915 20.5925 20.9805 20.4804 21.2948   14.75
 57.0291 108.516 28.3277 4.78387 66.4378 34.9576 168.809 90.7911 178.189 120.015 13.6438 75.4258 71.8542 118.446 171.437 103.492 4.93349 50.4112 171.569  -68.36 -8.4971 5.49996  23.703 20.5806 20.9742 20.4738 21.3311 14.7521
 52.8679 101.687 31.1795 2.07871 74.1296 41.9949  177.42 99.7862 179.646 125.561 13.4954 71.5712 74.8912 117.492 175.064 104.566 3.02801 59.3452 181.407 -66.988 -6.7024 6.20052 23.7211 20.5676 20.9654 20.4669 21.3706 14.7542
 48.1573 94.3996 33.7969 -0.3902 81.2846 48.9424 184.773 107.997 178.709 129.332 12.7817 67.4256 76.9993 116.284 176.831 104.606 1.14928 68.0292 189.924  -64.47 -7.0973 6.74684 23.7408 20.5602  20.949 20.4624 21.4105 14.7563
 43.0025 86.8434 36.1858 -2.6248 87.9512 55.7588 190.959 115.443 175.572 131.254 11.4853 63.0349 78.1877 114.608  176.71 103.557 -0.5678 76.5797 197.156 -61.757 -9.7972 7.06255 23.7608 20.5623 20.9207 20.4601 21.4451 14.7583
 37.5396 79.2256 38.3588 -4.6331 94.1428 62.3986 196.038 122.122 170.479 131.257 9.62538 58.4725 78.5219  112.33 174.692 101.376 -2.0012 85.1109 203.162 -57.468 -12.162 7.11281 23.7737 20.5707 20.8856 20.4593 21.4698 14.7603
 31.8805 71.7238 40.3193 -6.4145 99.8127 68.8309 200.036 128.026 163.671 129.324 7.22916 53.8502 78.0708 109.399  170.79 98.0428 -3.0824 93.7142 208.014 -49.005 -12.501 6.93822 23.7689 20.5789  20.857 20.4632 21.4845 14.7623
 26.0901 64.4685 42.0541 -7.9577  104.85 75.0589 202.948 133.159 155.378 125.551 4.31945 49.3138  76.824 105.832 165.049 93.5951 -3.8041 102.436 211.796 -35.128 -12.448 6.63019 23.7461 20.5842 20.8455  20.479 21.4915 14.7643
 20.2343 57.5496 43.5363 -9.2458 109.098 81.1248 204.766 137.542 145.838 120.152 0.92162 45.0173  74.708 101.656 157.571   88.15 -4.1956  111.27 214.611 -17.561 -14.635 6.27369 23.7166 20.5895 20.8514 20.5102 21.4923 14.7662
 14.4459 51.0219  44.732 -10.261 112.392 87.0947 205.483 141.198 135.312 113.426 -2.9346 41.0942 71.6643  96.889 148.532 81.8899 -4.3021  120.16 216.547 0.14337   -18.9 5.90653 23.6919 20.5985 20.8693 20.5531 21.4883 14.7681
 8.93163 44.8977 45.6114 -10.983 114.587  93.032 205.089 144.161 124.075 105.718 -7.2213 37.6292  67.655 91.5892 138.163 75.0469 -4.1865  129.02 217.639 15.9921  -22.17 5.52229  23.676 20.6111 20.8969  20.601  21.483   14.77
 3.90973 39.1499 46.1594 -11.396 115.587 98.9725 203.577 146.507 112.403 97.4397 -11.912 34.6451 62.6143 85.9092 126.709 67.9055 -3.9322 137.731 217.846 31.4334 -22.148 5.11296 23.6661 20.6249 20.9348 20.6487 21.4816 14.7719
 -0.4704 33.7451 46.3873 -11.504 115.365 104.903 200.967 148.371  100.57 89.0472 -16.971 32.1174 56.4579 80.0751 114.421 60.7978  -3.626 146.147 217.086 48.9944 -19.665 4.70573 23.6592 20.6397 20.9781 20.6942 21.4887 14.7737
 -4.1571 28.6762 46.3399 -11.351 113.981  110.75 197.345 149.924 88.8358 80.9912 -22.336 30.0026 49.1762 74.3141 101.557 54.0626 -3.3303 154.094 215.298 68.5519 -16.492  4.3639 23.6583 20.6589 21.0154 20.7375 21.5039 14.7756
 -7.1662 23.9489 46.0912 -11.005 111.564 116.403 192.863 151.311 77.4321 73.6405 -27.903  28.254 40.9031 68.7999 88.3799 47.9743 -3.0726 161.389 212.468 86.9268 -12.037 4.16623 23.6694 20.6831  21.037 20.7778 21.5213 14.7774
 -9.5638 19.5318 45.7218 -10.533 108.282 121.746 187.688  152.59 66.5296 67.2243 -33.524 26.8212 31.8937 63.6385 75.1401 42.6794 -2.8677 167.852 208.601  100.97 -3.8936 4.17435 23.6935 20.7065  21.044 20.8118 21.5349 14.7791
 -11.502 15.3045 45.2876 -9.9777 104.315 126.704 181.931 153.712 56.2164 61.8181 -39.027 25.6526 22.4537 58.8962 62.0441  38.192 -2.7443 173.317 203.694 109.989 8.29614 4.40412 23.7221  20.722 21.0448 20.8347 21.5432 14.7809
  -13.28  11.017 44.8041 -9.3508 99.8348 131.278 175.636 154.543 46.4976 57.3825  -44.26 24.6885 12.8626  54.617 49.2189 34.4336 -2.7527 177.658 197.757 115.058 20.8134 4.82876 23.7438 20.7289 21.0441 20.8429 21.5485 14.7826
 -15.355 6.28221 44.2625 -8.6522 94.9975 135.517 168.809 154.872 37.3023 53.7782 -49.146 23.8302 3.28483 50.7517 36.6813 31.2293 -2.9648 180.787 190.841 116.898 28.3865 5.40728 23.7535 20.7322 21.0378 20.8355 21.5541 14.7843
 -18.264 0.62351 43.6668 -7.9005 89.9184 139.433 161.411 154.379 28.4652 50.7133 -53.696 22.9217 -6.3095 47.0518 24.3131 28.2373 -3.4774 182.613 183.007 115.255 28.3871 6.10836  23.752 20.7364 21.0198 20.8156 21.5628  14.786
 -22.531 -6.4722 43.0695 -7.1623 84.6393 142.916 153.311 152.622 19.6809 47.6918 -58.006 21.7461 -16.182 43.0198 11.8249 24.9077 -4.4117 182.963 174.252  110.77 22.7141 6.91189 23.7408 20.7406 20.9921 20.7881 21.5753 14.7876
 -28.613 -15.528 42.5807 -6.5564 79.0962   145.7 144.246  149.09 10.4714 44.0474 -62.253 20.0169 -26.832 37.9403 -1.2827 20.5345 -5.8939 181.544 164.438 106.301 15.9515 7.78631 23.7177 20.7417 20.9633 20.7582 21.5884 14.7893
 -36.905 -27.057 42.3503 -6.2337 73.0851 147.367 133.801 143.264 0.21928 39.0346  -66.69 17.3605 -38.963 30.9812 -15.712  14.331 -8.0121 177.974 153.277 104.966 11.1518 8.67259 23.6786 20.7396 20.9381 20.7298 21.5962 14.7909
 -47.722 -41.534 42.5478 -6.3601  66.255 147.343 121.432 134.632 -11.737 31.9033  -71.62 13.2945  -53.37 21.2717  -32.29   5.446 -10.761 171.848 140.332 106.902  7.5093 9.50155 23.6216 20.7387 20.9126 20.7048 21.5937 14.7925
 -61.271 -59.352 43.3408 -7.0972 58.1569 144.872 106.511 122.656 -26.018 21.9356 -77.373 7.22663 -70.791 7.88486 -51.858 -7.0369 -13.984 162.807 125.055 108.704 2.75533 10.2085 23.5435 20.7449 20.8807 20.6823 21.5787 14.7941
  -77.59 -80.717 44.8543 -8.5682 48.3031 139.005 88.3786 106.777 -43.152 8.48234   -84.3 -1.4999 -91.834 -10.172 -75.138 -24.027 -17.331 150.586 106.829 106.198 -2.9745 10.7164 23.4361 20.7593 20.8427 20.6615 21.5533 14.7956
 -96.476 -105.48 47.1191 -10.811  36.198 128.635 66.4378  86.456 -63.516 -8.9775 -92.754 -13.512 -116.93 -33.821 -102.59 -46.268 -20.228 135.044 85.0258 97.1777 -6.9795 10.9335 23.2834 20.7787 20.8051  20.643 21.5223 14.7972
 -117.36 -132.94 50.0536 -13.756 21.3786 112.637 40.2901 61.3064 -87.231  -30.75 -103.04 -29.272 -146.15  -63.61 -134.24 -74.119 -21.854 116.206 59.1447 81.7545 -7.6437 10.8006 23.0681 20.8027 20.7735 20.6291 21.4886 14.7987
 -139.17 -161.62 53.4863 -17.249 3.49297 90.0911 9.92535 31.2768 -114.03 -56.816 -115.38 -48.933 -178.96 -99.386 -169.46 -107.29 -21.129 94.3365  29.016   61.65  -6.773 10.3358 22.7839  20.837  20.747 20.6215 21.4517 14.8002
 -160.21 -189.23  57.166 -21.051 -17.609 60.5943   -24.1 -3.1314 -143.12 -86.697 -129.83 -72.225 -213.93 -140.04 -206.75 -144.57  -16.79 70.0201 -4.9917 40.0149 -7.2694 9.62408 22.4418 20.8873 20.7213 20.6185   21.41 14.8017
  -178.2  -212.6 60.7099 -24.792  -41.77 24.6508 -60.549 -40.651 -173.08 -119.28 -146.27 -98.342 -248.75 -183.34 -243.69 -183.59 -7.5807 44.2366 -41.835 21.2887 -9.3447 8.77438 22.0662 20.9506 20.6962 20.6148 21.3651 14.8031
  -190.5 -228.05 63.5144  -27.87 -68.366  -15.89 -97.431 -79.046 -201.77 -152.53 -164.34  -125.8 -280.25 -225.74 -276.92 -220.65 7.41178 18.4446 -79.697 9.48261 -10.438 7.89222 21.6843 21.0166 20.6769 20.6041 21.3202 14.8046
 -194.56 -231.85 64.7139 -29.407 -96.092 -57.496 -131.97 -114.99  -226.2 -183.31 -183.27 -152.29 -304.63 -262.46 -302.28 -250.82 28.3188 -5.3407  -115.9 5.68358 -8.9333 7.07751 21.3254 21.0762 20.6653 20.5837 21.2767  14.806
 -188.56 -221.19 63.2932 -28.356 -122.74 -94.994 -160.64 -144.21 -242.67 -207.36 -201.72 -174.78 -317.98  -287.9  -315.3 -268.47 54.0895 -24.575 -146.93 7.07383 -6.5561 6.42107 21.0289 21.1268 20.6558 20.5552 21.2335 14.8074
 -172.01  -195.2 58.4126 -23.846 -145.13 -122.28 -179.46 -162.02 -247.19  -219.9  -217.6  -189.8 -316.93 -296.73 -312.02 -268.44 82.3026 -36.448 -168.72 8.39512 -6.0865 5.98353 20.8442 21.1666 20.6424 20.5223 21.1921 14.8088
 -146.33  -155.8 49.8469 -15.617 -159.42 -133.62 -184.65 -164.25 -236.37 -216.61  -228.1 -194.02  -299.4 -285.07 -289.94 -247.42  109.33 -38.447 -177.38  5.3621 -7.6044 5.76388 20.8129 21.1891 20.6281 20.4892 21.1593 14.8101
    -115 -107.95  38.292 -4.3181  -161.9 -125.24 -173.72 -148.42 -208.53 -195.02 -230.05 -184.96 -264.95 -251.51 -248.96    -205 130.908 -29.169  -170.2 -2.9115 -8.4273 5.69919 20.9478 21.1874 20.6259 20.4608 21.1439 14.8115
 -83.178 -59.019  25.349 8.51506 -150.31 -96.648 -146.74  -115.1 -164.95 -155.82 -220.96 -161.99 -215.18 -197.68 -191.97 -144.36 143.048 -9.1713 -146.99 -14.939 -6.8409  5.7245 21.2255 21.1635  20.647 20.4424  21.152 14.8128
 -56.907 -17.673 13.1816 20.7813 -125.18 -51.311 -107.44 -68.665 -110.68 -103.77 -200.43 -127.27 -154.29 -128.74 -125.42 -72.731  143.07  18.489 -111.08 -29.546 -4.4983 5.82243 21.5979 21.1289 20.6898 20.4372 21.1829 14.8141
 -42.058 7.76037 3.93106 30.3628 -90.495 3.70953 -63.158  -17.16 -54.361 -47.414 -171.01 -86.093 -89.565 -53.593  -59.26 -0.8961  130.45 48.4776 -69.349 -46.914 -4.1394  6.0096 22.0047 21.0986 20.7393 20.4423 21.2294 14.8154
 -43.028 11.2382 -0.9632 35.7831 -53.061 59.2632 -23.465 29.4286 -6.3646 2.80987 -138.04 -45.828 -30.953 16.2003 -5.2378 58.9522 107.168 74.3666 -30.754  -67.09 -5.8343 6.31368 22.3816 21.0816 20.7803 20.4484 21.2806 14.8167
 -61.353 -9.1432  -1.208  36.672 -20.713  106.33 2.52456 61.7833 24.1032 37.3963 -107.96 -13.883  11.212 69.0678 26.3727 96.4499 77.2769 90.4039 -3.9239 -88.224 -6.9189  6.7573 22.6658  21.078 20.8104 20.4465 21.3274  14.818
 -94.799 -50.318 2.44004 33.7142 -0.1307  138.04 8.75351 73.6985 31.6127 50.3002   -86.2 4.47562 29.3004 96.4259 29.8762  105.58 45.7645 93.0487  5.2238  -107.1 -5.7225 7.32885 22.8048 21.0837 20.8371 20.4354 21.3645 14.8192
 -137.73 -105.09  8.6931 28.1447 4.78888 150.763 -6.4396 63.2561 15.5388 39.9905 -75.609 7.34353 20.5229 94.4779 5.46601 85.5045 17.1888 81.5811 -5.3431 -121.11 -3.9615 7.98541 22.7718 21.0973 20.8632 20.4216 21.3875 14.8204
  -182.8  -164.3 16.2698 21.2003 -6.6288 144.133 -40.724 32.4503  -20.59 8.99892 -76.229 -3.9403 -12.785 64.4771 -41.547 40.1459 -5.2636 57.7197 -34.095 -128.92 -4.4511 8.69038 22.5759 21.1188 20.8818 20.4117 21.3924 14.8217
 -223.09 -219.36 24.1999 13.8152 -32.424 120.334 -89.291 -14.221 -70.843 -37.538 -86.061 -25.914 -64.354 11.8519 -102.92 -23.126 -20.048 24.6844 -77.232 -129.63 -7.3363 9.41111 22.2527 21.1451 20.8849 20.4063  21.378 14.8229
 -253.63 -263.89 31.8841 6.57157  -69.03 83.1269 -146.46 -71.293 -128.74 -93.581  -102.1 -54.339 -125.83  -55.38  -169.9 -95.478  -27.03 -13.806 -130.08 -122.22 -10.011 10.0909  21.844 21.1682 20.8733 20.4012 21.3502  14.824
 -271.88 -294.31 39.0113 -0.2139 -112.22 36.9832 -206.77 -133.38  -188.4  -153.4 -121.18 -85.158 -188.71 -128.38 -234.82 -168.46 -27.054 -54.272 -187.98 -106.01 -10.823 10.6764 21.3846 21.1802 20.8562 20.3943  21.321 14.8252
 -277.42 -309.57 45.4536 -6.3934 -157.79 -13.526 -265.48 -195.67 -244.95  -212.1 -140.44 -114.97 -245.89 -198.95 -291.92  -235.1 -21.507 -93.843 -246.75 -82.146 -11.436 11.1752 20.9063 21.1795  20.843 20.3864 21.3013 14.8264
 -271.35 -310.45 51.1864 -11.921 -201.94 -64.158 -318.72 -254.14 -294.56 -265.76  -157.5 -141.17 -292.54 -260.45 -337.55 -290.27 -11.994 -130.35 -302.72 -54.721 -14.502 11.6678 20.4413  21.172 20.8361 20.3786 21.2957 14.8275
 -255.62  -298.9 56.2218 -16.795 -241.47 -111.28 -363.62 -305.61 -334.47 -311.45 -170.52 -161.93 -326.11 -308.23 -369.99 -330.79  -0.132 -162.28  -352.8 -29.337 -19.853 12.2675 20.0199 21.1652 20.8319 20.3691 21.3023 14.8286
 -232.53 -277.45 60.5519 -20.997 -273.88 -152.06 -398.37 -347.74 -362.89 -347.22 -178.13 -176.08 -345.72 -339.63 -388.99  -355.3 12.5588 -188.69 -394.61 -9.4053 -24.369 13.0701 19.6694 21.1608 20.8302  20.355 21.3182 14.8297
 -204.45 -248.81 64.1154 -24.458 -297.54 -184.53 -422.29 -379.01 -379.05 -371.97 -179.51  -183.1  -351.5 -353.82 -395.15  -363.9 24.7395 -209.14  -426.6 5.76832 -25.642 14.1053 19.4123 21.1547 20.8371 20.3362 21.3437 14.8308
 -173.49  -215.6 66.7854 -27.034 -311.71 -207.62 -435.62 -398.77 -383.14 -385.46 -174.35 -182.95 -344.09 -351.36 -389.47 -357.86 35.3304 -223.55 -448.13 18.6225 -24.312 15.3165 19.2667 21.1449 20.8581 20.3162   21.38 14.8319
 -141.47 -180.15 68.3736 -28.522 -316.55 -221.12 -439.14 -407.11 -376.16 -388.21 -162.96 -176.11 -324.46 -333.99 -373.13 -339.23  43.571 -232.13 -459.35 29.6319 -21.883 16.5885 19.2437 21.1331 20.8906 20.2989 21.4249  14.833
 -109.84 -144.34 68.6653 -28.703 -312.99 -225.56 -433.91 -404.79 -359.72 -381.35 -146.12  -163.4 -293.93 -304.28 -347.47 -310.64 49.0454 -235.24 -460.93 36.8579 -17.537  17.786 19.3443 21.1203  20.926  20.286 21.4721  14.834
 -79.673 -109.66 67.4794 -27.393 -302.42 -221.98 -420.98  -393.1 -335.74 -366.39 -124.99 -145.91 -254.37  -265.4 -314.13 -275.01 51.6651 -233.45 -453.74 39.0541 -8.8424 18.7713 19.5572 21.1042 20.9601  20.279 21.5137 14.8351
 -51.703 -77.112 64.7234 -24.503 -286.52 -211.77 -401.43 -373.61  -306.3 -345.01 -100.93 -124.83 -208.29  -220.7 -275.14 -235.14 51.6182  -227.4 -438.72 37.7734 4.38279 19.4287 19.8591 21.0819 20.9967 20.2801 21.5433 14.8361
 -26.364 -47.322 60.4334 -20.076 -266.97 -196.39 -376.39 -348.01 -273.39 -318.84  -75.38 -101.36 -158.61 -173.26 -232.81 -193.49 49.3096 -217.83 -416.83 35.3418 18.1734 19.6855 20.2217 21.0562 21.0403 20.2917 21.5594 14.8371
 -3.8253 -20.579  54.797 -14.307 -245.28 -177.29 -347.08 -317.94 -238.77 -289.36 -49.652 -76.636 -108.22 -125.72 -189.41 -152.04 45.2867 -205.41 -389.15  31.467 27.0522 19.5078 20.6176 21.0343 21.0884 20.3134 21.5644 14.8381
 15.9424 3.04162 48.1406 -7.5352 -222.71 -155.82 -314.77 -284.92 -203.97 -257.89 -24.877  -51.69 -59.629 -80.136 -146.94  -112.3 40.1354 -190.79 -356.86 23.0903 28.2468 18.9024 21.0223 21.0216 21.1337 20.3403 21.5627 14.8391
  33.096 23.5766 40.8877 -0.1956  -200.2 -133.21 -280.72 -250.33 -170.13 -225.58 -1.9224 -27.443 -14.756  -38.07 -107.02 -75.365 34.3781 -174.54 -321.21 7.78862 23.5728 17.9213 21.4137 21.0161 21.1726 20.3654 21.5576 14.8401
 47.8445  41.104 33.5033 7.24289 -178.39 -110.49 -246.03 -215.38 -138.06 -193.34 18.6255 -4.6724 25.1128 -0.5578 -70.714  -41.93 28.4239 -157.18 -283.44   -13.6 17.5832 16.6567  21.771 21.0108 21.2076 20.3848 21.5496  14.841
 60.4083 55.7369 26.4408 14.3306  -157.6 -88.501 -211.59 -181.05 -108.17 -161.82 36.4816 16.0296  59.324 31.8446 -38.559   -12.3 22.5742 -139.19  -244.7 -38.039 13.3366 15.2322 22.0792 21.0024 21.2394 20.3991 21.5373  14.842
 71.0322 67.6489 20.0991 20.6719 -137.94 -67.868 -178.12  -148.1 -80.591 -131.52 51.6622 34.2942 87.7892 58.9902 -10.628  13.489 17.0442 -121.03 -206.02 -62.903 10.0544 13.7785  22.334  20.993 21.2642 20.4105  21.521 14.8429
 80.0211 77.1025  14.789 25.9548 -119.41 -49.029 -146.14 -117.09 -55.309 -102.79 64.4367 49.9819 110.847 81.0483  13.324 35.5814  11.976 -103.14 -168.28 -86.681  5.5049 12.3856 22.5387 20.9845 21.2784 20.4195 21.5032 14.8438
 87.7452 84.4469 10.7054 29.9827  -101.9 -32.228 -116.01  -88.38 -32.207 -75.895 75.2324 63.1622 129.075 98.4223 33.7327  54.251 7.43465 -85.933 -132.19 -107.83 -0.1377 11.0758 22.6962 20.9729 21.2866 20.4243 21.4865 14.8448
 94.5919 90.0923 7.90571 32.6976 -85.325 -17.519 -87.986  -62.18 -11.127 -50.989 84.5237  74.068 143.151 111.693 51.1316 69.8733 3.40885 -69.777 -98.303 -124.53 -4.1371  9.8214 22.8028 20.9516 21.3001 20.4239 21.4729 14.8457
 100.895 94.4743 6.31227 34.1808 -69.598 -4.7851 -62.201 -38.541 8.10219 -28.129 92.7355 83.0463 153.777 121.581   66.08 82.8993 -0.1609 -54.939 -67.015 -135.63 -4.8477 8.58642 22.8527 20.9191 21.3277 20.4192 21.4653 14.8465
 106.893  98.019 5.75014 34.6209 -54.671 6.22649 -38.691 -17.386 25.6643 -7.2765 100.186 90.5062 161.656 128.881 79.1194 93.8171 -3.3413 -41.576 -38.545 -140.98 -4.0524  7.3698 22.8457 20.8831 21.3683  20.412 21.4668 14.8474
  112.73 101.111 6.00161 34.2595 -40.499  15.838 -17.402 1.43912 41.7359 11.6541 107.062 96.8682 167.485 134.361 90.7363 103.085 -6.1833 -29.732 -12.958 -140.73 -4.6371 6.20768  22.794 20.8533 21.4119 20.4038 21.4795 14.8483
 118.465 104.042 6.84297 33.3452 -27.036 24.3757 1.77961  18.112 56.4624  28.739 113.411 102.507 171.904  138.62 101.331 111.062 -8.7225 -19.365 9.78007  -135.1 -6.8032 5.13648 22.7242 20.8323 21.4507 20.3938 21.5034 14.8491
 124.077 106.972 8.05742 32.1087 -14.261 32.1236 18.9779 32.7876 69.9462 44.0295 119.159 107.707 175.406 142.017 111.203 117.979 -10.991 -10.372 29.7413 -125.12 -7.9844 4.16578 22.6601 20.8159 21.4862 20.3797 21.5355   14.85
 129.471 109.944 9.44295 30.7536 -2.1859  39.301 34.3269 45.5932 82.2616 57.5753 124.151 112.648 178.304 144.723 120.568 123.932  -13.03 -2.6037 47.0259 -113.04 -6.5648 3.27913 22.6091 20.8004 21.5215 20.3589 21.5691 14.8508
 134.487 112.936 10.8307 29.4454 9.15463 46.0625 47.9936 56.6486 93.4906 69.4587 128.219 117.407 180.771 146.803 129.578 128.908 -14.886 4.13896 61.7923  -101.7 -4.2704  2.4521 22.5722  20.787  21.552 20.3297 21.5962 14.8516
 138.928 115.876 12.1046 28.2974  19.743 52.5117 60.2006 66.0925  103.75 79.8065 131.241 121.955 182.886 148.243 138.346 132.832 -16.606 10.1076 74.2843 -93.599 -3.8849 1.67349 22.5579 20.7785 21.5683 20.2916 21.6133 14.8525
 142.607 118.659 13.2093 27.3575 29.5984 58.7227 71.2148 74.0997 113.174 88.7754 133.181 126.185 184.712 148.975 146.945 135.627 -18.226 15.5814 84.8197 -89.765 -5.4926 0.96998 22.5802 20.7746 21.5671 20.2459 21.6219 14.8533
 145.376 121.188  14.145 26.6118 38.7805 64.7558 81.3067 80.8914 121.871 96.5371 134.099 129.969 186.323 148.954 155.391 137.272 -19.775 20.8206 93.7478 -89.766 -6.4147  0.4281 22.6422 20.7717 21.5547 20.1971 21.6252  14.854
 147.159 123.378 14.9508 26.0058 47.3804 70.6684 90.7148 86.7424 129.899 103.279 134.125 133.202  187.76 148.212 163.652 137.862 -21.266 26.0462 101.414 -92.731  -4.939    0.18 22.7303 20.7675 21.5396 20.1521 21.6247 14.8548
 147.951 125.159 15.6815 25.4681 55.4984 76.5225  99.629 91.9712 137.262 109.197 133.401 135.817 189.016 146.844  171.66 137.608 -22.693 31.4485 108.153 -97.847 -2.7177 0.33914 22.8276 20.7648 21.5246 20.1184 21.6198 14.8556
 147.805 126.467 16.3925 24.9222 63.2174 82.3839  108.19 96.8936 143.908 114.442 132.053 137.768 190.066 144.944 179.302 136.763 -24.025 37.1914 114.299  -104.3 -2.4855 0.93257 22.9278 20.7703 21.5081 20.0998 21.6103 14.8564
 146.785 127.234 17.1317 24.3047 70.5854 88.3088 116.489 101.763 149.724  119.07 130.168 139.006 190.868 142.592 186.399 135.536  -25.21 43.4126 120.169 -111.15 -4.3007 1.90583 23.0315  20.785 21.4904 20.0949 21.5978 14.8571
 144.941 127.371 17.9335 23.5887 77.6099 94.3239 124.567 106.733 154.528 123.029 127.776 139.479 191.362 139.888 192.712 134.065 -26.205 50.2091 126.021 -117.21 -5.4794  3.1953 23.1314 20.8024 21.4769 20.0995 21.5835 14.8578
 142.333 126.793 18.8116 22.7847 84.2533 100.404 132.393 111.837 158.069 126.176 124.864 139.152 191.456  136.95 197.953 132.404 -26.991 57.6026  131.98 -121.37 -4.3214 4.77847 23.2091 20.8154 21.4743 20.1125  21.568 14.8586
 139.076  125.45 19.7556  21.919   90.43 106.462 139.846 116.982 160.031 128.301 121.409 138.024 191.013 133.839 201.803 130.514 -27.572 65.5164 138.018 -123.35 -2.5031 6.65917 23.2513 20.8232 21.4847 20.1361 21.5509 14.8593
 135.321 123.342 20.7339 21.0208  96.022 112.359 146.741 121.953 160.088 129.152 117.387 136.107  189.87 130.474 203.937 128.245 -27.962 73.7972 143.985 -123.59 -2.7885 8.81869 23.2618 20.8279 21.5032 20.1708 21.5307   14.86
 131.195 120.493 21.7127  20.116 100.927 117.918 152.875 126.452 158.021 128.483 112.778 133.399 187.887  126.64 204.098 125.364 -28.168 82.2706 149.685 -122.27 -5.2637 11.1828 23.2547 20.8281 21.5239 20.2115 21.5066 14.8607
 126.782 116.928 22.6854 19.2078  105.11 122.941 158.093 130.156 153.806 126.107 107.589 129.883 184.998  122.06 202.172 121.627 -28.186 90.7828 154.948  -118.8 -7.2598 13.6288  23.237 20.8176 21.5468 20.2512 21.4812 14.8614
 122.139 112.699  23.682 18.2654 108.618 127.249 162.301 132.771 147.615 121.971 101.874 125.582 181.184  116.53 198.206  116.85 -28.015 99.2072 159.669 -112.29 -7.0668 16.0005 23.2021 20.7915 21.5745 20.2854 21.4604 14.8621
 117.312 107.915 24.7495 17.2442 111.542 130.718 165.489 134.099 139.753 116.159 95.7029 120.585 176.377 110.001 192.366 110.943 -27.674 107.433 163.831 -102.54 -6.3104 18.1209 23.1424 20.7533  21.604 20.3125 21.4494 14.8628
 112.308 102.699 25.9379 16.1024 114.002 133.305 167.746 134.086 130.594 108.885 89.1289 115.014 170.481  102.56 184.892 103.927 -27.201 115.368 167.508 -90.073 -7.6458 19.8348 23.0639 20.7133 21.6238 20.3316 21.4484 14.8634
 107.098 97.1073 27.3013 14.7992  116.13 135.049 169.259 132.851 120.542 100.464 82.1952 108.977 163.492 94.3649 176.069 95.9379 -26.639  122.95 170.828  -75.42 -10.972 21.0583 22.9862 20.6814 21.6232 20.3419 21.4547 14.8641
 101.654 91.1536 28.8872 13.3005 118.041  136.04 170.263 130.668 110.012  91.289 74.9645  102.57 155.525 85.6156 166.221 87.2231 -26.049  130.15 173.877 -58.837 -13.336 21.8061 22.9286 20.6599 21.6038 20.3451 21.4671 14.8648
 95.9876 84.8903 30.7095 11.5959 119.797 136.377 170.958 127.892 99.3989 81.7988 67.5375 95.9208 146.748 76.5628 155.682 78.1018 -25.506 136.967 176.627 -40.797 -12.636 22.1896 22.8984 20.6462 21.5778 20.3461 21.4859 14.8654
 90.1632 78.4544 32.7311 9.71082 121.391 136.121  171.47 124.869 89.0564 72.4281 60.0391 89.2244 137.315 67.5002 144.776 68.9107 -25.085 143.411 178.955 -22.949 -9.9921 22.3729 22.8936 20.6402 21.5563 20.3504 21.5088  14.866
 84.2801 72.0487 34.8734 7.70387 122.754 135.286 171.863 121.855 79.2794 63.5562 52.5786 82.7179 127.356 58.7084  133.79 59.9467  -24.81 149.492 180.704 -8.8585  -7.532 22.5048  22.908 20.6451 21.5411 20.3617 21.5288 14.8667
 78.4327 65.8745 37.0465 5.65045 123.788 133.861  172.14 118.963 70.2865 55.4715  45.219 76.6138 116.987 50.4061 122.962 51.4361 -24.629  155.21 181.743 -2.9252 -4.9589 22.6861 22.9341 20.6619 21.5286 20.3803 21.5383 14.8673
 72.6608 60.0552  39.165 3.63172 124.403 131.878 172.252 116.185 62.2144 48.3648 37.9623 71.0437 106.356 42.7468 112.459  43.537 -24.448 160.551  181.99 -7.1852 0.08233 22.9621 22.9629 20.6868 21.5194 20.4024 21.5351 14.8679
 66.9387 54.6289 41.1416 1.73747 124.523 129.443 172.089 113.451 55.1182 42.3407 30.7572 66.0714 95.6418  35.822 102.374 36.3446 -24.183  165.48 181.408 -19.185 8.19288 23.3025 22.9835 20.7162  21.519 20.4245 21.5243 14.8685
 61.2197 49.6005 42.8868  0.0567 124.091 126.735 171.513 110.669 48.9778 37.4277 23.5313 61.7435 85.0203 29.6432 92.7277 29.8842   -23.8 169.955 180.037 -33.593 16.0948  23.593 22.9872 20.7507   21.53 20.4468 21.5138 14.8691
 55.4697 44.9428 44.3247 -1.3481 123.103 123.958 170.421 107.758 43.7279 33.6025 16.2258 58.0856 74.6284 24.1223 83.4826 24.1052 -23.317 173.945 178.045 -45.678 19.1061 23.6565 22.9703 20.7937 21.5449  20.471 21.5086 14.8697
 49.6205 40.5113  45.408 -2.4533 121.642 121.347 168.823 104.709 39.3171   30.86 8.80301 55.0443 64.5528  19.077 74.5688 18.9142 -22.796 177.455  175.76 -53.334 15.2758 23.2908 22.9323 20.8467 21.5526  20.496 21.5082 14.8702
 43.4978 35.9918 46.1231 -3.2592 119.879 119.176 166.845 101.626 35.7453 29.2813  1.2406 52.4653 54.8151 14.2683 65.9002 14.2214 -22.335 180.532 173.611 -56.598 6.94197 22.2922 22.8711 20.9054 21.5515 20.5192 21.5114 14.8708
 36.8317 30.9656 46.4789 -3.7678 118.002 117.735 164.635 98.6967 33.0228 28.9967 -6.4785  50.146 45.3029 9.43036 57.3532 9.93285  -22.05  183.22 171.987 -56.327 -1.5412 20.4841 22.7783 20.9607 21.5488  20.541 21.5175 14.8714
 29.3187 24.9823 46.4916 -3.9824 116.121 117.212 162.245 96.0862 31.0847 30.0527 -14.382  47.872 35.6815  4.2274 48.7117 5.87558 -22.053 185.498 171.079 -53.643 -7.9884 17.7723 22.6453 21.0063 21.5481 20.5638 21.5245 14.8719
 20.6461 17.5389 46.1878 -3.9293 114.204 117.568 159.565 93.8055 29.7167  32.263 -22.527 45.3719 25.3689 -1.8134 39.6093 1.70597 -22.433 187.237 170.789  -49.91 -14.221 14.1943 22.4714 21.0443 21.5455 20.5879 21.5276 14.8725
 10.4807  8.0468 45.6166 -3.6691 112.025 118.469 156.272 91.6034 28.4854 35.0971 -31.022 42.2626 13.5902 -9.3164 29.4819  -3.146 -23.238 188.177 170.711 -46.283 -23.261 9.94998 22.2641 21.0796 21.5347 20.6096  21.523  14.873
 -1.5342 -4.1235 44.8515  -3.287 109.121 119.279 151.772 88.9189 26.6764 37.6345 -40.057 38.0549 -0.5527  -19.04 17.5524 -9.4776 -24.472 187.906 170.122 -42.797 -35.286 5.42712 22.0313 21.1111 21.5147 20.6248   21.51 14.8736
 -15.746 -19.528 43.9807 -2.8839 104.797 119.079 145.177 84.8881 23.2778 38.5993 -49.896 32.1964 -18.007 -31.819 2.86921 -18.273 -26.086 185.852 167.974 -38.495 -47.341  1.1875 21.7754 21.1316 21.4907 20.6338 21.4891 14.8741
 -32.384 -38.491 43.1242 -2.5911 98.1997 116.666 135.357 78.3824 17.0325 36.4571 -60.814 24.1181 -39.617 -48.455 -15.594 -30.637  -27.94 181.315 162.938  -32.72  -56.84 -2.1221 21.4955 21.1373 21.4666 20.6422 21.4619 14.8746
 -51.399  -60.96 42.4961 -2.6175 88.4681 110.567 121.106 68.1001 6.57922 29.5674 -73.016 13.2559 -65.913 -69.656 -38.761 -47.677 -29.717 173.543 153.549 -25.874 -63.749 -3.9256  21.194 21.1319 21.4398  20.656 21.4311 14.8751
 -72.336 -86.388 42.4615 -3.2877  74.917 99.1461 101.388  52.754 -9.3127 16.3999 -86.584 -0.9314 -96.936 -95.966 -67.199 -70.261 -30.813 161.864 138.432 -18.859  -68.44 -3.8906 20.8801 21.1223 21.4047 20.6768 21.4004 14.8756
  -94.25 -113.61 43.4983 -5.0144 57.1657 80.8469 75.5847 31.3453  -31.46 -4.1871 -101.46  -18.89 -132.09 -127.51 -100.83 -98.687 -30.274 145.851 116.556 -11.961 -69.074 -2.0439 20.5666 21.1123   21.36 20.7022 21.3729 14.8761
 -115.65  -140.7 46.0448 -8.1849 35.2162 54.5564 43.7096 3.46498 -59.992 -32.635 -117.42 -40.805 -170.05 -163.62 -138.67 -132.35 -26.846 125.475 87.4582 -4.8657  -63.07 1.21711  20.259 21.1022   21.31 20.7295 21.3518 14.8766
 -134.49 -164.86  50.295 -12.985 9.53345 20.0607 6.63114 -30.404 -94.083 -68.339 -134.13 -66.381 -208.69 -202.43 -178.64 -169.42 -19.127 101.257 51.4856 2.25881 -50.806 5.21901 19.9568 21.0922 21.2588 20.7566  21.337 14.8771
 -148.21  -182.6 56.0207  -19.21 -18.827 -21.456 -33.651 -68.584 -131.62 -109.27 -151.11 -94.638    -245 -240.84 -217.44  -206.7 -5.8469 74.4385  10.105 8.13093 -36.468 9.20594 19.6687 21.0847 21.2046 20.7815 21.3228 14.8776
 -154.13 -190.12 62.4847 -26.152 -48.069 -66.973 -73.772 -107.97 -168.93 -151.66 -167.74 -123.79 -275.19 -274.51 -250.55 -239.58 13.6965 47.1339 -33.784 10.7063 -24.622 12.5791 19.4211 21.0821 21.1418 20.8018 21.3033 14.8781
 -149.99 -184.14 68.4908 -32.631   -75.6 -111.51 -109.06 -144.02 -200.82 -190.08 -183.23 -151.25 -295.06 -298.49 -272.69 -262.56 39.0695  22.309 -75.779 8.21927 -16.346 15.0152 19.2494 21.0825   21.07 20.8146 21.2778 14.8786
 -134.75 -162.99 72.6114 -37.224 -98.169 -148.59 -134.12 -171.31  -221.3 -218.06 -196.51 -173.77  -300.8 -308.16  -278.8 -270.26 68.2194 3.42007  -110.4 -0.1745 -9.3802  16.422   19.18 21.0795 20.9984 20.8186 21.2501  14.879
 -109.33 -127.65 73.5808 -38.671 -112.25  -171.5  -143.9 -184.43 -224.86 -229.42    -206 -187.91 -289.74 -300.16 -265.23 -258.71 97.3884 -6.2911 -132.11 -14.341 -2.0407  16.886  19.223 21.0675 20.9389 20.8148 21.2232 14.8795
 -76.861 -82.251 70.7109 -36.293 -114.66 -174.79 -134.98 -179.43    -208 -219.81 -209.51 -190.45 -260.81 -273.03 -230.74 -226.41  121.62  -4.672 -136.62 -33.065  4.2253 16.6418 19.3803 21.0463 20.8955 20.8055 21.1981 14.8799
 -42.355 -33.682  64.116 -30.206 -103.39 -155.85 -106.75    -155 -170.48 -188.05 -204.52 -179.19 -214.81 -227.47 -177.11 -174.95 135.829 8.54816 -122.19 -54.296 7.00742 15.9765  19.651 21.0186  20.865 20.7918 21.1768 14.8804
 -11.919 9.56939 54.6777 -21.265 -78.599 -115.84 -62.298 -113.59 -115.97 -137.11 -189.44    -154 -154.87 -166.78 -109.65  -109.5 136.197 31.2867 -90.654  -75.77 6.60721 15.1102 20.0202 20.9848 20.8477 20.7735 21.1658 14.8808
  8.2851 38.9957 43.8431 -10.857 -43.356 -59.974 -8.4874 -61.541 -52.033 -74.174 -165.09 -117.91 -87.037 -97.465 -37.281 -38.944 121.466 59.1792  -47.64 -95.395 6.04972 14.1575 20.4422 20.9429 20.8511 20.7494 21.1741 14.8813
 13.1505 47.7872 33.3345 -0.6314 -3.4788 3.19333 45.0535 -8.1428 11.1491 -9.5345 -135.31 -77.115 -20.359 -29.257 28.6243 25.2755 93.5407 86.3699 -1.6836 -111.58 7.32521 13.1718 20.8449 20.8948 20.8814 20.7199 21.2082 14.8817
 -0.1366 32.4828 24.7864 7.83885 33.7545 63.6247 88.2089 36.7118 63.2647 45.9624 -105.82  -39.42   34.61 26.5009 76.9285 71.9925 56.9886 106.962 37.9658 -123.68 8.97983 12.1948 21.1579 20.8491  20.935 20.6886 21.2675 14.8821
  -30.92 -5.7959 19.3784 13.4117 61.6116 112.289 113.148  65.309  96.644 83.9432 -82.174 -11.707 68.6412 59.9744 99.7448  93.464 17.5949  116.62 63.9399 -131.55 8.39767 11.2745  21.341 20.8172 20.9977 20.6598 21.3415 14.8825
 -74.751  -61.24 17.5902 15.6166 75.6003 143.193 116.209 73.9638 107.921  100.44 -67.849 2.17073 76.4535  65.746 94.1836 87.1584 -19.268 113.553 72.4571 -134.65 5.56693  10.459 21.3888 20.8035 21.0554 20.6353 21.4142 14.8829
 -124.59 -124.93 19.1951 14.6659 74.1255 154.089 98.0106 63.0479 97.9492 95.8523 -63.754 1.92339 57.6723 43.8443 62.4326  55.684 -49.702 98.4865 63.3679 -132.57 3.15928 9.78261 21.3153 20.8026 21.1054 20.6157 21.4751 14.8833
    -173 -187.49 23.4851 11.2297 58.1073 145.895 62.1327 35.6262 70.4184 73.4584 -68.825 -10.108 16.1704 -1.1297 10.4942 5.28767 -71.547 73.8845 38.9741 -126.09 2.82159 9.26157 21.1375 20.8066 21.1545 20.6033 21.5235 14.8837
 -213.96 -241.36 29.5725 6.12892 30.0886  121.56 13.4283 -4.1363 30.1298 37.6593 -80.926 -30.392 -41.349  -61.76 -53.849 -56.308 -84.129 42.9598 2.64009 -117.37 2.80544 8.89223  20.877 20.8136 21.2086 20.6032 21.5616 14.8841
 -243.72 -281.75 36.6038 0.12149 -6.6292 85.0446  -43.17 -51.995 -18.207 -7.1676 -97.497 -55.313 -106.88 -129.58 -122.89  -121.7 -87.861 8.88211 -42.112  -108.9 0.28309 8.64377 20.5668 20.8291 21.2673 20.6188 21.5863 14.8845
 -260.62 -306.54 43.8432 -6.1575 -48.591 40.6442  -103.2 -104.04 -70.419  -57.09 -115.95 -81.701 -172.51 -196.53 -190.02 -184.67 -83.859 -25.674  -91.97  -102.3 -4.8521  8.4622 20.2453 20.8573 21.3282 20.6482 21.5932 14.8849
 -264.78 -315.66 50.6735 -12.165 -92.537  -7.462 -162.87 -156.82 -122.93 -108.68 -133.96 -106.98 -231.66 -256.01 -250.13  -240.5 -73.618  -58.71 -143.92 -97.982 -9.8683 8.29039 19.9415 20.8935 21.3945 20.6858 21.5834 14.8853
 -257.49 -310.47 56.5909 -17.428 -135.56 -55.505 -218.98 -207.36 -172.73 -158.96 -149.59 -129.15 -279.74 -303.51 -299.61 -285.89 -58.803 -88.883 -195.25 -95.415  -12.86 8.09081 19.6718 20.9279  21.472 20.7267 21.5642 14.8857
 -240.81 -293.18  61.218 -21.553 -175.11 -100.27 -268.91 -253.11 -217.33 -205.38 -161.34 -146.68 -314.27  -336.6  -336.3 -318.83 -41.106 -115.38 -243.44 -93.509 -15.069 7.85512 19.4523 20.9537 21.5582  20.767 21.5413  14.886
 -217.12 -266.46 64.3089 -24.251 -209.07 -139.17 -310.57 -291.93 -254.76 -245.79 -168.14 -158.47 -334.36 -354.53 -359.32 -338.38 -22.168 -137.73 -286.23 -91.321  -18.63 7.59555 19.3061 20.9693 21.6401 20.8015 21.5153 14.8864
 -188.77 -233.07 65.7395 -25.338 -235.84 -170.27 -342.49 -322.09 -283.58 -278.43 -169.32 -163.87 -340.16  -357.5  -368.8 -344.51 -3.4846  -155.7 -321.61 -88.725 -23.143 7.32267 19.2569 20.9742 21.7027 20.8233 21.4863 14.8868
 -157.85  -195.6  65.498  -24.74 -254.41 -192.39 -363.92 -342.37 -302.94    -302 -164.62 -162.64 -332.31 -346.32  -365.6 -337.89 13.6682 -169.19 -348.04 -86.093 -26.055 7.02298 19.3191 20.9655 21.7397 20.8259   21.46 14.8871
 -126.08 -156.31 63.6706 -22.491 -264.44 -205.12 -374.84 -352.13 -312.52 -315.77 -154.21 -154.94 -311.76 -322.22 -351.05 -319.88 28.3116 -178.19 -364.64 -83.412 -26.321 6.67122 19.4902 20.9413 21.7553 20.8065 21.4449 14.8875
 -94.733 -117.02 60.4202 -18.725 -266.23 -208.73 -375.81 -351.44 -312.59 -319.65 -138.66  -141.3 -279.82 -286.88 -326.81 -292.33 39.8049 -182.77 -371.18 -80.141 -26.227 6.26454 19.7521 20.9061 21.7553 20.7673 21.4456 14.8878
 -64.744 -79.111 55.9617 -13.653 -260.63 -204.15 -367.75 -341.02 -303.98 -314.19 -118.86 -122.56  -238.4 -242.67 -294.98  -257.5 47.8474 -183.14 -368.09 -75.886 -28.651 5.82868 20.0782  20.871 21.7405 20.7131 21.4591 14.8882
 -36.792 -43.616 50.5401 -7.5392 -248.86 -192.77 -351.81 -322.24 -288.02 -300.52 -95.948 -99.844 -190.11 -192.52 -257.94 -217.85 52.4487 -179.68 -356.25 -71.185 -33.157 5.40171 20.4379 20.8448 21.7095 20.6499  21.477 14.8885
 -11.327 -11.221 44.4194 -0.6933 -232.34 -176.25 -329.36 -296.92 -266.38 -280.22 -71.191 -74.452 -138.07 -139.62 -218.13 -175.82 53.8747 -172.88 -336.94 -67.285 -35.889 5.00733 20.8004  20.827 21.6674 20.5829 21.4901 14.8889
 11.3963 17.6757 37.8777 6.55014 -212.51 -156.29 -301.94 -267.05 -240.87 -255.06 -45.827 -47.712 -85.371 -86.908 -177.82 -133.63 52.5808 -163.37  -311.7 -65.186 -33.593 4.63421 21.1377 20.8098 21.6252 20.5167  21.493 14.8892
 31.2883 42.9178 31.2035 13.8557 -190.69 -134.48 -271.17  -234.6 -213.22 -226.76 -20.985 -20.882 -34.697 -36.773 -138.84 -93.084 49.1302 -151.74 -282.22  -65.23 -27.363 4.25577  21.432 20.7877 21.5909 20.4564 21.4837 14.8895
  48.389 64.5361  24.694 20.8997 -168.01 -112.18 -238.59 -201.33 -184.91 -196.89 2.38986 4.90758 11.8487  8.9971 -102.58 -55.571 44.1057 -138.64 -250.11 -67.131 -22.054 3.85598 21.6791 20.7618 21.5628 20.4088  21.463 14.8898
 62.8554 82.7007 18.6544 27.3664 -145.38 -90.486 -205.54 -168.69 -157.13 -166.75 23.6072 28.7096 52.7996 49.1657 -69.907  -22.04  38.048 -124.64 -216.86 -69.968 -22.072 3.41744 21.8857 20.7367 21.5346   20.38 21.4359 14.8902
 74.9482 97.6936 13.3876  32.954 -123.45 -70.196 -173.12  -137.8 -130.69 -137.44 42.2674 49.8324 87.3496  83.021  -41.25 6.96109 31.4326  -110.3 -183.72  -72.61 -27.726 2.90207 22.0647 20.7128 21.5047 20.3727 21.4099 14.8905
 84.9917 109.882 9.15953 37.4092 -102.67 -51.798 -142.15 -109.39 -106.15 -109.73  58.254 67.8869 115.323 110.375 -16.603 31.2702 24.6637 -96.115  -151.7 -74.572 -35.701 2.25617 22.2283 20.6866 21.4779 20.3855  21.391 14.8908
 93.3329 119.683 6.15485 40.5681 -83.257 -35.478 -113.16 -83.839 -83.758 -84.138 71.6896 82.7787  137.06 131.526  4.3596 51.0626 18.0651 -82.467 -121.54 -75.943 -42.931 1.43365 22.3856  20.659  21.457  20.415 21.3801 14.8911
  100.34 127.526 4.45848 42.3683  -65.27 -21.173 -86.443 -61.204 -63.544 -60.892 82.8926 94.6616 153.227 147.107 22.1606 66.7788 11.8619 -69.671 -93.712 -76.404 -48.903 0.42168 22.5415  20.638 21.4381 20.4565  21.374 14.8914
 106.404 133.833 4.06332 42.8371 -48.652 -8.6414 -62.102 -41.344 -45.374  -40.02 92.3146 103.863 164.667 157.913 37.4065 79.0189 6.17567 -57.964 -68.447 -74.735 -53.561 -0.7337 22.6943 20.6326 21.4152 20.5026 21.3681 14.8917
 111.888 138.998 4.87301 42.0811 -33.273 2.45117 -40.076 -23.976 -28.997 -21.422 100.428 110.801 172.306 164.771 50.7081 88.4356 1.04096 -47.517 -45.801 -69.261 -54.716 -1.9127 22.8353 20.6456 21.3881 20.5426 21.3586  14.892
 117.035 143.344 6.69849  40.287  -18.98 12.4544 -20.197 -8.7456 -14.112 -4.9075 107.605 115.919 177.081 168.479 62.6332 95.6472 -3.5626 -38.426 -25.689 -58.816 -49.518 -2.9529 22.9493 20.6731 21.3631 20.5675 21.3433 14.8923
 121.934 147.087 9.27743 37.7107 -5.6372 21.6679  -2.247 4.71338 -0.4278 9.75526 114.072 119.655 179.869 169.767 73.6638 101.177 -7.6819 -30.708  -7.937 -42.822 -38.157 -3.7109 23.0227 20.7093 21.3461 20.5749 21.3213 14.8926
 126.548 150.331 12.3183 34.6393 6.86091 30.3044 13.9995 16.7378 12.2951 22.7964 119.912 122.384 181.402 169.275 84.1572 105.428 -11.377 -24.276 7.67669 -21.018 -24.696 -4.1106 23.0546 20.7503 21.3363 20.5693 21.2913 14.8928
 130.766 153.077 15.5416 31.3521 18.5744 38.4893 28.7492 27.6168 24.2179 34.4033 125.089 124.385 182.201 167.525  94.322 108.676 -14.708 -18.933 21.4079 5.33308 -13.632 -4.1754 23.0588 20.7916 21.3293 20.5581  21.255 14.8931
 134.455 155.256 18.7034 28.1004 29.5184 46.2909 42.1696 37.5774 35.4088  44.687 129.471 125.829 182.542 164.861 104.223 111.057 -17.724 -14.388 33.5324 32.1559 -6.0145 -4.0204 23.0527 20.8257 21.3244 20.5479 21.2173 14.8934
 137.469  156.77 21.6051 25.0985 39.6804 53.7518 54.3833 46.7744 45.8445 53.6734 132.876   126.8  182.49 161.442 113.809 112.576 -20.459  -10.32 44.3278 53.9703 0.41879  -3.784  23.041 20.8448 21.3263 20.5446 21.1857 14.8937
 139.633 157.514 24.0928 22.5159 49.0506  60.906 65.4866 55.2889 55.4337 61.3263 135.112 127.334 181.959 157.359  122.95 113.171 -22.934 -6.4167 54.0619 67.5639 7.33499 -3.5601  23.014 20.8491 21.3376 20.5526 21.1661 14.8939
 140.768 157.393 26.0527  20.473 57.6435 67.7889 75.5705 63.1358 64.0415 67.5703  136.02  127.45 180.796 152.764 131.467 112.746 -25.165 -2.3977 62.9835  73.817 13.2626 -3.3907 22.9661 20.8484 21.3541 20.5726 21.1619 14.8942
  140.74 156.363 27.4133 19.0419 65.4983 74.4359 84.7268 70.2814 71.5074 72.3049 135.504 127.175  178.89 147.904 139.165 111.207 -27.181 1.96119 71.3117 75.0447 15.7634  -3.308  22.909 20.8534 21.3689 20.5995  21.173 14.8945
 139.486  154.44  28.155 18.2439 72.6695 80.8754 93.0505 76.6669 77.6752 75.4332 133.547 126.549  176.22 143.052 145.866 108.505 -29.018  6.8154 79.2333 71.1793 15.1123  -3.355  22.861 20.8677  21.383 20.6237 21.1985 14.8947
 137.006 151.691 28.3133 18.0428 79.2056 87.1242 100.649 82.2288 82.4221 76.8977 130.201 125.615 172.826 138.435 151.419 104.663  -30.71  12.246 86.9055 59.8067 14.3126 -3.5559  22.828 20.8869 21.4054  20.635  21.237  14.895
 133.347 148.191 27.9683 18.3463 85.1278 93.1901 107.642 86.9232 85.6667  76.697 125.575 124.405  168.76 134.181 155.683 99.7463 -32.277 18.2706 94.4544 39.9477 15.3401 -3.8831 22.8019 20.9048 21.4424  20.628  21.285 14.8952
 128.593 143.985 27.2356 19.0194 90.4371 99.0707 114.153 90.7547 87.3669 74.8892 119.819 122.909  164.08 130.259 158.524 93.8209 -33.722 24.8671 101.968 14.5008 16.7368 -4.2721 22.7753 20.9168 21.4892 20.6043  21.337 14.8955
 122.877 139.083 26.2718 19.8941 95.1476 104.736 120.296 93.7857 87.5163 71.5865 113.135 121.053 158.841 126.466 159.835 86.9503 -35.032 31.9931 109.495 -11.792 15.8952 -4.6706 22.7499 20.9194 21.5338  20.569 21.3866 14.8957
 116.407 133.492 25.2738 20.7811 99.3059 110.109 126.176 96.1168 86.1329 66.9408 105.782 118.702 153.046 122.513 159.543   79.21 -36.177 39.5932 117.046 -35.739 12.8275 -5.0795 22.7335 20.9089 21.5681 20.5272 21.4284  14.896
 109.424 127.238 24.4393 21.5005 102.971 115.084 131.872 97.8616 83.2466 61.1374 98.0283 115.695 146.649 118.135   157.6 70.6941 -37.115  47.595   124.6 -56.277 10.2473 -5.5376  22.727 20.8803 21.5954 20.4832 21.4614 14.8962
  102.14 120.391 23.9108 21.9239 106.174  119.57 137.409 99.1451 78.8968  54.401 90.0769  111.91 139.587 113.162 153.976 61.5261 -37.823 55.9119  132.09 -72.869  9.8636 -6.0616 22.7189 20.8324 21.6241 20.4409 21.4906 14.8964
 94.6944  113.07 23.7566 21.9899 108.911 123.523 142.753 100.108 73.1662 46.9937  82.064 107.326 131.819 107.524 148.681 51.8708 -38.298  64.447 139.422 -84.825 10.0107 -6.6144 22.6984 20.7712 21.6572 20.4025 21.5224 14.8967
 87.1851 105.427 23.9896 21.6865 111.151 126.928 147.826 100.883 66.2276 39.1879 74.0909 102.022 123.352  101.23 141.799 41.9285 -38.559  73.087 146.489  -92.26 7.96264 -7.1299 22.6681  20.708 21.6885 20.3676 21.5591 14.8969
  79.711 97.6243 24.5828 21.0346  112.85 129.782  152.54 101.559 58.3517 31.2365  66.243 96.1557 114.252 94.3323 133.488 31.9121 -38.654 81.7016 153.205 -96.859 3.72703 -7.5585 22.6396 20.6535 21.7105 20.3354  21.598 14.8971
 72.3682 89.8036 25.4728 20.0876 113.971 132.116 156.845 102.201 49.8717 23.3801 58.5717 89.9376 104.602  86.916 123.964 22.0374 -38.665  90.163 159.528  -100.8 0.15052 -7.8918 22.6183 20.6149 21.7234 20.3079 21.6369 14.8974
 65.2141 82.0684 26.5645 18.9313 114.524 134.036 160.764 102.913 41.1324 15.8718 51.0704 83.6122 94.4484 79.1274 113.462 12.5243 -38.687 98.3739 165.477 -104.78 -0.7661 -8.1503 22.5997 20.5979 21.7326 20.2913 21.6767 14.8976
 58.2582 74.4797  27.749 17.6702 114.588 135.715 164.396 103.876 32.4381 8.98128  43.675 77.4079  83.785 71.2001 102.204 3.58899 -38.796 106.288 171.147 -107.46  -0.221   -8.37 22.5807 20.6067 21.7404 20.2918 21.7197 14.8978
 51.4984 67.0779 28.9337 16.3988  114.31 137.366 167.887 105.333 24.0133 2.97287 36.3049 71.4973 72.5903 63.3951 90.3917 -4.5677 -39.007 113.916  176.69 -107.11 -0.3511 -8.5987 22.5653  20.641 21.7429 20.3108 21.7661  14.898
  44.966 59.9156 30.0649 15.1776 113.873 139.189 171.391 107.508 15.9993 -1.9273 28.9229 65.9904 60.8945  55.866 78.2289 -11.768 -39.257 121.301 182.274  -103.2 -0.6863 -8.8747 22.5593 20.6943 21.7344 20.3437 21.8113 14.8982
 38.7188 53.0693 31.1244 14.0349 113.469 141.337 175.021 110.525 8.47812 -5.5709 21.5572 60.9357 48.8336 48.6113 65.9435 -17.869 -39.445 128.489  188.01 -96.945 1.62184 -9.1946  22.564 20.7544 21.7149  20.384 21.8482 14.8984
 32.7797 46.6138 32.1065 12.9849 113.267 143.898 178.801 114.362 1.50245 -7.9142 14.2722 56.3297 36.6472 41.5826 53.7847  -22.78 -39.482 135.511 193.901 -90.486 8.04859 -9.4986 22.5726 20.8109  21.692  20.428  21.871 14.8986
 27.0907 40.5822  33.003 12.0391 113.388 146.884  182.64  118.87 -4.8732 -9.0046 7.13673 52.1458 24.6332 34.8121 41.9985 -26.472 -39.306  142.39 199.839 -84.984 16.5382 -9.6889 22.5749 20.8614 21.6746  20.474 21.8773 14.8988
 21.5477 34.9642 33.8058 11.2072 113.894 150.239 186.353 123.834 -10.566 -8.9454 0.21297 48.3653  13.119 28.4479  30.808 -28.988 -38.864 149.151 205.632  -79.57  23.932 -9.6649 22.5658 20.9114 21.6666 20.5174 21.8661  14.899
 16.0808 29.7358 34.5153 10.4933 114.773 153.829 189.712 129.015  -15.47 -7.8676 -6.4377 44.9796 2.43566 22.6931 20.4045  -30.45 -38.107 155.812  211.05 -72.756 29.6663  -9.353 22.5488 20.9637 21.6668 20.5501 21.8377 14.8992
 10.6775  24.862  35.137 9.89399  115.95 157.487 192.502 134.165 -19.472 -5.8917 -12.762 41.9626 -7.1728 17.7008 10.9425 -31.025 -37.008 162.377  215.86 -64.398 35.7019 -8.7166  22.533 21.0122 21.6745 20.5664 21.7956 14.8994
 5.32979 20.2711 35.6686 9.40606 117.305 161.066 194.574 139.051 -22.463 -3.0631 -18.742   39.26 -15.662 13.5151 2.54117 -30.861 -35.596 168.831 219.862 -55.696 42.6567 -7.7307 22.5277 21.0474 21.6908 20.5665 21.7471 14.8996
  -0.031 15.8338 36.0953 9.03442 118.726 164.488 195.904 143.471 -24.314 0.68132  -24.42 36.8033 -23.169 10.0839 -4.7229 -30.065  -33.96 175.139 222.935 -47.317 47.2809 -6.3573 22.5416 21.0667 21.7129 20.5541 21.7019 14.8998
 -5.5574 11.3562 36.3974 8.78621 120.154 167.736 196.604 147.262 -24.878 5.46271 -29.908 34.5032 -29.883 7.26662 -10.851 -28.753 -32.242 181.242 225.079 -38.316 44.6458 -4.5761 22.5806  21.077 21.7335 20.5339 21.6679    14.9
 -11.464  6.5844 36.5615 8.65883 121.566 170.821 196.873 150.283  -24.03 11.3601 -35.371 32.2251 -36.002 4.81858 -15.975 -27.117 -30.606 187.054 226.401 -27.613 32.3468 -2.4269 22.6428 21.0877 21.7459 20.5121 21.6498 14.9002
 -18.016 1.19104 36.5863 8.64006 122.923 173.756 196.866 152.378 -21.773 18.3176 -41.016 29.7723 -41.831 2.40316 -20.412 -25.449  -29.23 192.445 227.019 -15.977 12.5334 -0.0106 22.7187 21.1022   21.75 20.4945 21.6484 14.9004
 -25.542 -5.2474 36.4723  8.7233 124.101 176.514 196.548  153.33 -18.363 26.0541 -47.075 26.8905 -47.838 -0.4082 -24.712 -24.178 -28.304 197.229 226.915 -5.6053 -9.7339 2.54171 22.7925 21.1175 21.7497  20.486 21.6609 14.9006
 -34.439 -13.248  36.203 8.91786  124.83 178.983 195.596 152.825 -14.396 33.9926 -53.789 23.2944 -54.653 -4.1954 -29.668 -23.903  -28.02 201.143 225.847 2.46183 -30.444 5.10388 22.8465 21.1327 21.7453 20.4905 21.6796 14.9008
 -45.117 -23.402 35.7475 9.23307 124.684 180.924 193.416 150.444 -10.796 41.2548 -61.374 18.6742 -63.052 -9.7387 -36.235 -25.409 -28.545 203.822  223.34 9.77452 -48.677 7.57183 22.8648 21.1529 21.7322 20.5106 21.6959 14.9009
 -57.939  -36.32 35.0993 9.64293 123.115 181.924 189.218 145.688 -8.7372 46.6979 -70.008 12.6621 -73.888 -17.996 -45.393 -29.608 -29.982 204.784 218.735 18.5673 -64.249 9.85547  22.836 21.1815 21.7058 20.5447 21.7043 14.9011
 -73.157 -52.529 34.3236 10.0533 119.514 181.338  182.08 137.986 -9.5436 48.9613 -79.847 4.79436 -87.993 -30.004 -58.059 -37.455 -32.327 203.443 211.193 29.0434 -74.891 11.8686  22.751 21.2134 21.6666  20.587 21.7035 14.9013
 -90.834 -72.325 33.5862 10.2819 113.283 178.249 171.018  126.72 -14.563 46.5519 -91.005 -5.4594 -106.05 -46.688 -75.008 -49.821 -35.408 199.157 199.727  39.481 -77.496 13.5411 22.6012 21.2395 21.6189 20.6304 21.6942 14.9014
 -110.75  -95.62 33.1692 10.0481 103.913   171.5 155.104 111.278 -24.978 38.0156 -103.49 -18.593  -128.4 -68.668  -96.76 -67.326 -38.806  191.32 183.303 48.9406 -71.579 14.8416   22.38 21.2569 21.5655 20.6693 21.6776 14.9016
 -132.27 -121.76 33.4722 8.97973 91.0733   159.8 133.673 91.1457 -41.552 22.2082 -117.13 -34.961 -154.93 -96.123 -123.39  -90.14  -41.77 179.467  161.04 58.7151 -60.222 15.7847 22.0904 21.2714 21.5047    20.7 21.6557 14.9018
  -154.2 -149.37 34.9627 6.66614 74.7286 141.924 106.553 66.0363 -64.372 -1.3712 -131.48 -54.691 -184.87 -128.63 -154.26  -117.8 -43.177 163.394 132.428 70.2167 -47.511 16.4144 21.7502 21.2913 21.4349 20.7196 21.6316 14.9019
 -174.73 -176.28 38.0385 2.77434 55.2101 117.038 74.2615 36.0874 -92.648 -32.244 -145.89 -77.591 -216.68 -164.92 -187.81 -148.98 -41.597 143.283 97.5547 82.1589 -35.331 16.7852 21.3883 21.3182 21.3613 20.7264 21.6091 14.9021
 -191.48 -199.51 42.8237 -2.7799 33.2182  85.157 38.1253 2.14944 -124.58 -68.653 -159.59    -103 -248.05 -202.66 -221.44 -181.31  -35.47 119.827 57.3285 91.1234 -22.908  16.965 21.0308 21.3471 21.2973 20.7213 21.5911 14.9023
  -201.8 -215.55 48.9719 -9.6448 9.79196 47.6743 0.35583 -33.877 -157.29 -107.36 -171.96 -129.65 -275.99 -238.37 -251.64 -211.19 -23.426 94.4029 13.7177 95.2238 -9.8064 17.0347 20.6962  21.372 21.2557 20.7064  21.578 14.9024
 -203.32 -220.87 55.5632 -16.907 -13.682 7.76489 -35.948 -68.839 -186.91 -143.77 -182.78 -155.58 -297.19  -267.7 -274.28 -234.02 -4.7515 69.1867 -30.092 96.1616  1.7457 17.0539 20.4098 21.3905 21.2391 20.6849 21.5685 14.9026
 -194.58 -212.72 61.1647 -23.136 -35.427 -29.655 -66.981 -98.502 -208.92 -172.46 -192.11  -178.2 -308.57    -286 -285.18 -244.78 20.0776 47.0718 -69.832  96.739 8.92325 17.0367 20.2109 21.4015 21.2428 20.6604  21.563 14.9027
 -175.65 -190.16 64.1088 -26.658  -53.28 -58.633 -88.703  -118.2 -218.91 -188.23  -200.1 -194.51  -307.7 -289.22 -280.86 -239.11 48.9969 31.2302 -100.72 97.1365 11.8766 16.9818 20.1389 21.4023 21.2643 20.6346 21.5637 14.9029
 -148.52 -154.77 62.9467 -26.026 -64.848 -73.448 -97.593 -123.84  -213.5 -187.11 -206.46 -201.53 -293.13 -274.64  -259.3 -214.39 78.3536 24.3622 -118.42  94.956  13.658 16.8972 20.2123 21.3898 21.3067 20.6075 21.5722  14.903
 -117.04 -110.92 56.8823 -20.458 -67.912 -70.033 -91.547 -112.98 -191.23 -167.33    -210 -196.79  -264.5 -241.32 -220.45 -170.56  103.44 27.8532  -120.1 88.9168 16.3962 16.7842 20.4224 21.3642 21.3708 20.5787 21.5862 14.9032
 -86.367 -65.185  46.002 -10.051 -61.081 -47.135 -70.722 -85.804 -153.23 -129.97 -208.75 -178.92 -222.77 -190.52 -166.58 -110.66  119.48 41.1488 -105.39 81.1222  18.838 16.6439 20.7446  21.331 21.4467 20.5481 21.5989 14.9033
 -62.086 -25.237 31.3037 4.20501  -44.52 -6.9218  -38.05 -45.579 -103.49 -79.291 -200.96 -148.63 -170.65 -126.11 -102.81  -41.05 122.882 61.6074 -76.852 74.7645  18.598 16.5056 21.1488  21.297 21.5161  20.516 21.6027 14.9035
   -49.2 1.49305 14.6019 20.5313 -20.454 45.0872 0.80884 1.47127 -48.765 -22.396 -186.54  -109.5  -113.2 -55.172  -37.14 29.0877 112.411 84.9034 -39.922 70.5676 15.9047 16.4193 21.5976 21.2643 21.5641 20.4834  21.594 14.9036
 -51.279 9.22597  -1.742  36.611 6.92748 100.867 38.2833 47.1931 2.35583  31.806 -167.79 -67.912 -57.856  12.439 20.4118 89.2405 89.7986 105.913 -1.9901 66.7379 13.6683  16.423 22.0363 21.2306 21.5867 20.4542 21.5754 14.9038
 -69.583 -4.7319 -15.346 50.0897 32.3014 151.559  66.549 83.3496 41.1784  74.548  -148.7 -31.497 -13.265 65.9588  59.894 130.022 59.3037 119.937 29.2403 61.9332 13.7655  16.522 22.3961 21.1953 21.5877 20.4345 21.5538 14.9039
 -102.32 -38.893  -24.44 59.1917  50.626 189.583 79.6233 103.781 61.2407 99.5365 -133.36 -6.6453 12.9969 96.6365  74.233 145.643 26.3624  123.89 47.7415 56.8874 14.6605 16.6751 22.6191 21.1635 21.5697 20.4302 21.5356  14.904
 -144.63 -87.633 -28.268 63.1309 58.4984 210.289 74.9167 105.857 60.0445 104.448 -124.41 3.42682 16.7246  100.15 61.3409 135.214 -3.9944 116.953  50.541  52.869 13.7089 16.8013 22.6819 21.1442 21.5302 20.4412 21.5229 14.9042
 -189.78 -142.78 -27.075 62.1232 54.7764 212.436 53.4045 90.4733 39.1962 90.7506 -122.47 -0.9916 -1.9583 77.3194 24.3469 102.403 -28.209 100.408 37.8275 49.4341 10.9354 16.8352 22.5952 21.1409 21.4685 20.4604  21.516 14.9043
 -231.12 -196.09 -21.777 57.0642 40.3282 197.558 18.5349 60.8533 3.07878 62.2589 -126.58 -17.154  -39.15 33.0931  -29.97 53.7932 -44.488 76.8699 11.9668 44.6051 9.11848 16.7832 22.3852 21.1464 21.3929 20.4777 21.5165 14.9044
 -263.65 -241.19 -13.525 49.0892 17.3306 168.833 -25.253 21.0917  -42.92 23.5126 -134.93 -41.275 -88.519 -25.297 -93.414 -3.2169 -52.525 49.3769 -23.769 37.4705 10.0772 16.7211 22.0767 21.1502 21.3162 20.4862 21.5277 14.9046
 -284.58 -274.26 -3.3814 39.2374 -11.429 130.075 -73.612 -24.824 -93.693 -21.279 -145.42 -69.571 -142.82 -90.069 -158.21 -62.016 -53.005 20.6794 -66.088 29.7522 12.2858 16.7465 21.6941 21.1501 21.2461 20.4834 21.5491 14.9047
 -293.03 -293.85 7.80891 28.3206 -43.056  85.125 -122.77  -73.39 -144.94 -68.603 -155.97 -98.778 -195.26 -154.07 -218.04 -117.46 -47.165 -7.1195 -112.02 24.3563 13.1602 16.9253 21.2705 21.1534 21.1801 20.4689 21.5715 14.9048
 -289.63 -300.13 19.4089 16.9557 -74.842 37.5796 -169.62  -121.6 -193.17 -115.57 -164.77 -126.29 -240.51 -211.41 -268.35 -165.85 -36.485 -32.629 -158.92 22.7862  12.811 17.2547 20.8484 21.1656  21.115 20.4412 21.5816 14.9049
 -275.96 -294.32 30.9189 5.64908  -104.4 -9.3095 -211.59 -166.82 -235.59  -159.7 -170.37 -150.09 -275.06 -257.73 -306.37 -204.71 -22.503 -55.066 -204.36 23.8507 14.0921 17.6664 20.4651 21.1828 21.0572 20.4004 21.5738 14.9051
 -254.18 -278.25 41.9053 -5.1404 -129.73 -52.713 -246.64 -206.81 -270.06 -198.87 -171.81 -168.72 -297.05 -290.27 -330.83 -232.55 -6.7383 -74.087 -246.11 24.9367 18.8402 18.0666  20.142 21.1953 21.0185 20.3531 21.5546 14.9052
 -226.68 -254.06 51.9605 -14.982  -149.3 -90.327 -273.26 -239.69 -295.07 -231.28 -168.53 -181.17 -305.78 -307.75 -341.58 -248.78 9.37746 -89.629 -282.19 24.9272 25.4304 18.3675 19.8889 21.1954 21.0038  20.311 21.5343 14.9053
 -195.77 -224.07 60.7046 -23.489 -162.08 -120.47 -290.49 -264.08  -309.8 -255.57 -160.39 -186.95 -301.24 -310.15 -339.14 -253.53 24.5706 -101.76 -310.96 25.2801 30.9908 18.4973 19.7118 21.1833 21.0079 20.2843 21.5191 14.9054
 -163.45  -190.5 67.8017 -30.342 -167.57 -142.16 -297.93 -279.13 -314.03 -270.82 -147.53 -186.01 -283.88 -298.49  -324.4 -247.57 37.8085 -110.57 -331.16 27.7023 35.0746 18.4275 19.6147 21.1636 21.0237  20.277 21.5088 14.9055
 -131.27 -155.35 72.9805 -35.307 -165.87 -155.09 -295.74  -284.6 -308.11 -276.64  -130.4 -178.74 -254.58 -274.56 -298.56 -232.15 48.3489 -116.14 -342.04 31.5424 39.6237 18.1942 19.5962 21.1377 21.0497 20.2872 21.5012 14.9057
 -100.32 -120.21 76.0579 -38.241 -157.59 -159.63 -284.61 -280.84 -292.92 -273.17 -109.64 -165.83 -214.87 -240.76 -263.23 -208.95 55.7547 -118.59 -343.43 34.3807 45.1328 17.8695 19.6479 21.1031 21.0874 20.3102 21.4975 14.9058
 -71.312 -86.305 76.9566 -39.105 -143.74 -156.67 -265.67 -268.75 -269.71 -261.07   -86.1 -148.22 -167.02 -199.82 -220.49 -179.84 59.8904 -118.08  -335.7 35.1033 48.1549 17.5024 19.7594 21.0605 21.1332 20.3417 21.5021 14.9059
 -44.618 -54.408 75.7134 -37.966 -125.57 -147.44  -240.3 -249.62 -240.01 -241.42 -60.745 -126.95 -113.86  -154.5 -172.73 -146.75 60.9029 -114.89 -319.72 35.3653 43.5188 17.0916 19.9206 21.0179 21.1771 20.3781 21.5176  14.906
 -20.382 -24.973 72.4781 -34.996 -104.41 -133.36 -210.05 -224.96 -205.46 -215.61 -34.557  -103.1 -58.367  -107.3 -122.35 -111.49 59.1713 -109.38  -296.7 37.3121 28.5664 16.6211 20.1213 20.9848 21.2095 20.4161 21.5428 14.9061
 1.40792 1.79002 67.5037 -30.447 -81.531 -115.85  -176.5 -196.36 -167.72 -185.13 -8.4896 -77.718  -3.195 -60.275 -71.578 -75.618 55.2067    -102  -268.1 40.6233 5.22223 16.1049 20.3505 20.9626   21.23 20.4502 21.5755 14.9062
 20.8298 25.8075 61.1271 -24.632 -58.072 -96.211 -141.15 -165.33 -128.36 -151.54 16.5842 -51.764  49.465 -15.011 -22.286 -40.434 49.5516 -93.234 -235.55 42.9621 -21.596 15.5891 20.5939 20.9456 21.2432 20.4722 21.6117 14.9063
 37.9872 47.0807 53.7513 -17.911 -34.956 -75.579 -105.42 -133.26 -88.826  -116.3  39.926 -26.108 97.9769 27.2859 24.0292 -6.9376 42.7283 -83.566 -200.66 43.2816 -47.868 15.1354 20.8355 20.9295 21.2495 20.4754 21.6437 14.9064
 53.0032 65.6724 45.8278 -10.684 -12.891 -54.878 -70.512 -101.36 -50.381 -80.797 60.9991 -1.5009 141.249 65.6841 66.2675 24.1237 35.2185 -73.417 -164.94  43.422 -72.426 14.7983 21.0648 20.9162  21.244 20.4579 21.6632 14.9065
 66.0332 81.7119  37.828 -3.3593 7.63589 -34.829 -37.405 -70.613 -14.102 -46.263 79.5194 21.4324 178.646 99.4607 103.681  52.206 27.4411 -63.132 -129.69 45.7145 -94.586 14.5898 21.2803 20.9086 21.2238 20.4215 21.6651 14.9066
 77.2793 95.3976 30.1975 3.68478 26.3388 -15.948 -6.8246 -41.777 19.1528 -13.779 95.4488 42.2248 209.896 128.117  135.84 76.9322 19.7302 -52.983 -95.972 49.8918 -111.56 14.4733 21.4865 20.9059 21.1947 20.3699 21.6492 14.9067
 86.9819 106.982 23.3045 10.1283 43.1123 1.43924 20.7809 -15.372 48.7921 15.8118 108.925 60.6104 235.049 151.432 162.638  98.099 12.3283 -43.165 -64.566 53.4995 -120.03 14.4025 21.6862 20.9054 21.1687 20.3098 21.6193 14.9068
 95.3902 116.736 17.3988 15.7374 57.9908 17.1894 45.2268 8.33103 74.5082 41.9685 120.183 76.5408 254.423 169.518 184.263 115.697  5.3994 -33.785 -35.972 55.2909 -119.57 14.3555 21.8785 20.9075 21.1527 20.2491 21.5797 14.9069
 102.723 124.914 12.5909 20.3873 71.1017 31.2937 66.5508 29.2849 96.2495 64.4617 129.491 90.1387 268.492  182.83 201.111 129.892 -0.9494  -24.87 -10.422  56.948 -112.88 14.3266 22.0637 20.9161 21.1426  20.195 21.5352  14.907
 109.122 131.748 8.86042 24.0684 82.6277 43.8335 84.9731 47.6144 114.178 83.3346 137.095 101.613 277.798 192.087 213.699 140.982 -6.6517 -16.379  12.094 60.6566 -102.69 14.3099 22.2459 20.9333 21.1305 20.1521 21.4914 14.9071
 114.618 137.417 6.08858 26.8659 92.7734 54.9499 100.845 63.5767 128.625 98.8544 143.187 111.179 282.936 198.098 222.602 149.349 -11.676  -8.242 31.7786 65.8367 -89.115 14.3116 22.4288 20.9544 21.1161 20.1218 21.4537 14.9072
 119.143 142.032  4.0974 28.9249 101.724 64.8293 114.562 77.5083 140.008 111.438 147.895 119.016 284.563 201.592 228.385 155.401  -16.02 -0.4008 48.9405 69.4995 -70.928  14.361 22.6073 20.9726 21.1071 20.1025 21.4257 14.9073
 122.603 145.666 2.68154 30.4225 109.602 73.6838 126.472 89.7616 148.719 121.551 151.295 125.272 283.337 203.135 231.524 159.506 -19.702 7.17647 63.9086  69.953 -48.999 14.4919 22.7706 20.9867 21.1083  20.092 21.4078 14.9074
 124.957 148.392 1.63664 31.5444 116.448 81.7229  136.83 100.652 155.056 129.625 153.407 130.103 279.797 203.105 232.364 161.953 -22.764 14.5079 76.9925 68.9654 -27.442 14.7162 22.9175 21.0029 21.1146 20.0895 21.3982 14.9075
 126.284 150.327 0.78708  32.463 122.242 89.1224   145.8 110.425 159.217 136.018 154.211 133.706 274.346 201.711 231.138 162.963 -25.269  21.618 88.4871 69.3535 -10.547 15.0267 23.0605 21.0284 21.1164 20.0933 21.3944 14.9076
 126.768 151.621 0.00414 33.3201 126.928 96.0078 153.488 119.246 161.334 140.989 153.679 136.299 267.327 199.099 228.031 162.701 -27.292 28.5401 98.6761 71.3047 0.94284  15.427 23.2148 21.0634 21.1103    20.1 21.3948 14.9077
 126.648 152.419  -0.799 34.2236 130.434 102.462 159.957  127.21  161.48 144.698 151.791 138.078 259.062 195.495 223.197 161.305 -28.907 35.2994 107.819  72.429 9.65045 15.9381 23.3797 21.1014 21.1017 20.1069 21.3984 14.9078
 126.159 152.837 -1.6857 35.2515 132.676 108.543 165.251 134.367 159.677 147.217 148.566 139.211 249.838 191.244 216.741 158.904 -30.183 41.9013 116.143 71.4332 17.6195 16.5511 23.5389 21.1367 21.0972 20.1158 21.4042 14.9078
 125.502 152.968 -2.6971 36.4459 133.594 114.285   169.4  140.75 155.931 148.541 144.086 139.846 239.911 186.683 208.738 155.606 -31.181  48.347 123.849 70.3293  23.735 17.1837 23.6766 21.1687 21.0966 20.1306 21.4117 14.9079
 124.822  152.88 -3.8349 37.7966 133.197 119.699 172.438 146.378 150.302 148.607 138.513  140.11 229.511 182.009 199.289  151.48 -31.945 54.6658 131.136 72.0508 25.8693 17.7068 23.7881 21.1998 21.0924 20.1526 21.4212  14.908
 124.177 152.601  -5.056 39.2397 131.606 124.774 174.428 151.256 142.942 147.348 132.071 140.088 218.787 177.286 188.552  146.56 -32.507 60.9289 138.198 76.7752 24.5535 18.0089 23.8756 21.2301 21.0794 20.1808  21.433 14.9081
 123.495 152.106 -6.2879 40.6843 129.032 129.503 175.467 155.385 134.072 144.746 124.999 139.791 207.776 172.518 176.723 140.877 -32.904   67.24 145.191 81.8943 22.9952 18.0384 23.9378 21.2556 21.0633 20.2139 21.4478 14.9082
 122.579 151.323 -7.4549 42.0462 125.725 133.886 175.687 158.771 123.934 140.853   117.5 139.163 196.492 167.694 164.005 134.486 -33.184 73.7197 152.192 85.4008 23.3321 17.8164 23.9688 21.2723 21.0573 20.2524 21.4674 14.9083
 121.185 150.152 -8.4969  43.266 121.917 137.919 175.239 161.421 112.751 135.753 109.739 138.136 184.977 162.807 150.598 127.444 -33.394 80.4724 159.193 88.0214 24.2365 17.4274 23.9695 21.2826 21.0694 20.2964 21.4917 14.9083
 119.107 148.487 -9.3784 44.3093 117.778 141.583 174.272 163.336 100.713 129.504 101.833  136.67 173.281 157.806 136.692 119.778  -33.56 87.5453 166.129 91.6071 23.2101 16.9797 23.9547  21.295 21.0955 20.3418 21.5164 14.9084
 116.226 146.237 -10.086 45.1641 113.418 144.852 172.937 164.531 87.9974 122.158 93.8368 134.756 161.456 152.545 122.477 111.508 -33.681 94.9216  172.92 96.2097 20.3598 16.5505 23.9456 21.3174 21.1262 20.3815 21.5359 14.9085
 112.496 143.333 -10.618 45.8389  108.91 147.694 171.387 165.042 74.7957 113.818  85.752 132.396 149.583 146.809 108.131  102.69 -33.727 102.547 179.492 99.6436 18.4802 16.1427 23.9535 21.3498 21.1555 20.4105 21.5501 14.9086
 107.942 139.759 -10.985  46.352 104.317 150.099 169.755 164.939 61.3149 104.652 77.5608 129.615 137.769 140.435 93.8134 93.4267  -33.67 110.353 185.779 100.196 19.3412 15.6863 23.9704 21.3871 21.1822 20.4288 21.5649 14.9087
 102.674 135.574 -11.193  46.715 99.7146 152.099 168.161 164.335 47.7757 94.8825 69.2624 126.468 126.122 133.405 79.6647 83.8495 -33.494 118.258 191.734 98.7768 21.3021  15.082 23.9801 21.4264 21.2047 20.4397 21.5846 14.9087
 96.8452 130.881 -11.245 46.9221 95.1892 153.797 166.748 163.423 34.4228 84.7765 60.8878 123.016 114.743 125.836 65.8189 74.0961 -33.195 126.173 197.356 97.5644 21.6001 14.2521 23.9736 21.4677 21.2179 20.4461 21.6067 14.9088
 90.6127 125.757  -11.14 46.9542 90.8536 155.363 165.695 162.455 21.5342 74.6202 52.4973 119.288  103.73 117.923 52.4156 64.3056 -32.779 134.005 202.691 97.1331 20.1081 13.1957 23.9505 21.5085 21.2192 20.4489 21.6244 14.9089
 84.1144  120.22 -10.871 46.7931 86.8357  156.99 165.177 161.674 9.40415  64.676 44.1591 115.265 93.1372 109.872 39.5869 54.6129 -32.258  141.67 207.795 95.6359 19.3952 12.0156 23.9075 21.5408 21.2143 20.4491 21.6344 14.9089
 77.4842 114.267 -10.445 46.4363 83.2466 158.839 165.302 161.244 -1.6926  55.151 35.9143 110.924 82.9502 101.842 27.4312 45.1371 -31.649 149.102 212.692 91.0362 20.9897 10.8522  23.834 21.5574 21.2136   20.45 21.6389  14.909
 70.8473 107.929 -9.8881 45.9041 80.1621 160.987 166.097 161.229 -11.521 46.1996 27.7605 106.264 73.0972 93.9038 16.0143 35.9699  -30.97 156.255  217.38 83.9321 22.9739 9.77511 23.7232 21.5574 21.2224 20.4551 21.6408 14.9091
 64.2992 101.282  -9.239 45.2369 77.6365 163.425 167.547 161.623 -19.885 37.9375 19.6773 101.312 63.4786 86.0483 5.40427 27.1754 -30.237 163.092  221.87 77.5813 22.2617 8.75272 23.5796 21.5455 21.2368 20.4633 21.6404 14.9092
 57.8841 94.4226 -8.5395 44.4891 75.7082 166.068 169.626 162.382 -26.634 30.4471   11.67 96.1044 53.9955 78.2386 -4.3071 18.7964 -29.459 169.583 226.224 74.7529 18.3588 7.71631 23.4165 21.5263  21.251 20.4691 21.6364 14.9092
 51.5755 87.4433 -7.8309 43.7221 74.3791 168.808 172.286 163.437 -31.686   23.78 3.78638 90.6857 44.6092 70.5024 -13.023 10.8667 -28.648 175.718 230.526 74.9803 13.4467 6.63493 23.2495 21.5015 21.2655 20.4678 21.6286 14.9093
 45.2877 80.4063 -7.1464 42.9899 73.6063 171.551  175.44 164.721 -35.033 17.9777  -3.903 85.1212 35.4298 62.9914 -20.679 3.44174 -27.831 181.506 234.819 75.6198  8.6958  5.5295 23.0908 21.4721 21.2852 20.4596 21.6176 14.9094
 38.9202 73.3282 -6.4996  42.323 73.3312 174.238 178.974 166.183 -36.713 13.1104 -11.338  79.509 26.7069 55.9619 -27.265 -3.3754 -27.029 186.965  239.08 75.3586 1.94505 4.43294 22.9513 21.4408 21.3114 20.4507 21.6025 14.9094
 32.4095 66.1902 -5.8858  41.726  73.497 176.821 182.738 167.784 -36.777 9.28614 -18.483  73.966 18.6945 49.6815 -32.834 -9.4532 -26.238 192.112 243.227 75.4676  -9.897 3.34333 22.8382 21.4121 21.3376 20.4494  21.579 14.9095
 25.7731 58.9823 -5.2948 41.1905 74.0236 179.218 186.504 169.446  -35.32 6.59824 -25.331 68.6095 11.5456 44.2988 -37.504 -14.694 -25.424 196.958 247.136 77.1215 -26.864 2.21892 22.7521 21.3889 21.3563 20.4607 21.5425 14.9096
 19.1112  51.729  -4.714 40.7022 74.7785 181.309 189.939 171.006 -32.517 5.05502 -31.895 63.5329 5.33445 39.7853 -41.465 -19.098 -24.535 201.506 250.642 78.6749 -45.401 1.01963 22.6858 21.3705 21.3688 20.4836 21.4906 14.9096
 12.5586 44.4858 -4.1196 40.2362 75.5749 182.946 192.632 172.224  -28.62 4.56431 -38.213 58.7994 0.11424  36.014 -44.952 -22.785 -23.515 205.756 253.535 76.8767 -61.837 -0.2614 22.6286 21.3549 21.3851 20.5141 21.4247 14.9097
  6.2276 37.3296 -3.4775  39.754 76.1907 183.975 194.167 172.811 -23.908 4.98402 -44.338 54.4584 -4.1208 32.8602 -48.218 -25.965 -22.309 209.693  255.56 70.7078 -75.707 -1.5866 22.5723 21.3424 21.4126 20.5466 21.3471 14.9097
 0.16866 30.3246 -2.7585 39.2128 76.4049 184.257 194.189 172.486 -18.621 6.19974  -50.34 50.5461 -7.5147 30.2106 -51.503 -28.863 -20.884 213.291 256.471 62.9156 -88.995 -2.8521 22.5146 21.3369 21.4474 20.5752 21.2608 14.9098
 -5.6558 23.4628 -1.9575 38.5871 76.0416 183.697 192.478 171.025 -12.932 8.16588 -56.298 47.0726 -10.351 27.9145 -55.002 -31.651 -19.242 216.507 256.077 57.0578 -102.25 -3.8992 22.4577 21.3414 21.4793 20.5955 21.1706 14.9099
 -11.389 16.6246 -1.1082 37.8923 74.9779 182.279 188.976 168.291  -6.981 10.8792 -62.317 44.0114 -13.039 25.7587 -58.872 -34.455 -17.443 219.278 254.249 53.6676  -112.6 -4.5856 22.4055 21.3536 21.5027 20.6067 21.0814 14.9099
  -17.29 9.56976 -0.2944 37.2022 73.1071 180.099 183.778 164.238 -0.9604 14.3214 -68.544 41.2944 -16.127 23.4829 -63.281 -37.399 -15.623 221.509 250.891 50.3563 -116.32 -4.8341 22.3585 21.3677  21.519 20.6119 20.9955   14.91
 -23.725 1.93072 0.35215 36.6464 70.2946 177.354 177.045 158.888 4.81335 18.3862 -75.157 38.8064 -20.248   20.75 -68.477 -40.661 -13.992  223.05 245.912 45.5965 -112.61 -4.6169 22.3119 21.3807 21.5282 20.6152 20.9111   14.91
 -31.129 -6.7882 0.68019 36.3735 66.3542 174.261 168.889 152.267 9.83012 22.7604 -82.336 36.3624 -26.033 17.0332 -74.842  -44.54 -12.806  223.67 239.197 41.0335 -103.85 -3.9348 22.2621 21.3958 21.5254 20.6187 20.8258 14.9101
  -39.95 -17.182 0.57477 36.4961 61.0371 170.932  159.24 144.315 13.3202 26.7928 -90.249 33.6648 -34.114 11.5648 -82.914 -49.524 -12.331  223.04 230.555 39.1834 -92.431 -2.8206 22.2117 21.4161 21.5066 20.6226 20.7412 14.9102
 -50.619 -29.888 0.01309 37.0384 54.0222 167.248 147.765 134.805 14.2336 29.4342 -99.064  30.268 -45.211 3.44665  -93.38 -56.332 -12.783 220.713 219.622 39.8343 -78.244  -1.324 22.1668 21.4401 21.4777 20.6273 20.6655 14.9102
 -63.511 -45.488 -0.9027 37.8975 44.9258 162.753 133.844 123.278 11.3215 29.2929 -108.95 25.5876 -60.152 -8.2233 -107.03 -65.877 -14.272 216.113 205.793 40.1539 -59.871 0.51489  22.126 21.4633 21.4542 20.6337 20.6089 14.9103
 -78.869 -64.358 -1.9305 38.8263 33.3703 156.611 116.663 109.059  3.3297 24.7973 -120.05 18.9499 -79.705  -24.33 -124.65 -79.147 -16.705   208.6  188.22 38.4001 -38.038 2.66301 22.0779  21.485 21.4489 20.6431 20.5769 14.9103
 -96.641 -86.507 -2.6817 39.4347 19.1038 147.626 95.4302 91.3353 -10.734 14.4525 -132.36 9.64006 -104.31  -45.68 -146.76 -96.991 -19.685 197.606 165.984 36.1575  -16.74 5.06439 22.0108 21.5118 21.4609  20.656 20.5679 14.9104
 -116.31 -111.42 -2.6424 39.2204 2.11171 134.385 69.6361 69.3482 -31.322 -2.8324 -145.68 -3.0418 -133.81 -72.756 -173.33 -119.84 -22.429 182.802 138.347 35.9798  -0.182 7.61547 21.9217 21.5506 21.4786 20.6713 20.5766 14.9104
 -136.74 -137.91 -1.2502 37.6404 -17.315 115.538  39.279 42.6484 -58.128 -27.385  -159.5 -19.669 -167.22 -105.39 -203.51  -147.4 -23.757 164.208 105.011 37.7458 10.9557 10.1583 21.8141 21.5991 21.4922 20.6861 20.5976 14.9105
 -156.11 -163.95 1.96643  34.238 -38.581  90.194 4.98914 11.3947 -89.959 -58.465 -173.08 -40.501 -202.61 -142.44  -235.5 -178.39 -22.175 142.258 66.3078 38.7352 19.3306 12.5172 21.6857 21.6472 21.4998 20.6966  20.626 14.9105
 -171.99 -186.71 7.20766 28.8179 -60.857 58.3723 -31.911 -23.377 -124.71 -94.107  -185.6 -65.248 -237.28 -181.57 -266.58 -210.29 -16.085 117.834 23.3509 37.3171 27.0026 14.5679 21.5279 21.6859 21.5025 20.7013 20.6567 14.9106
  -181.6 -202.73 14.2271 21.6335 -83.126 21.4621  -69.35 -59.576 -159.37 -131.12 -196.44  -92.87 -267.96  -219.2 -293.31 -239.43 -4.1244 92.3461 -21.817 35.1731 32.8566 16.2664  21.342 21.7136 21.4964 20.7008 20.6837 14.9106
  -182.4 -208.49 22.2219 13.5128 -104.14 -17.463 -104.45 -94.014 -190.03 -165.23 -205.34 -121.44 -291.13 -250.72 -311.81 -261.14 14.3566 67.7961 -66.122 34.9329 34.7522 17.6256 21.1512 21.7325 21.4761 20.6958 20.7025 14.9107
 -172.73 -201.23 29.8511 5.83769 -122.33 -53.705 -133.63 -122.64 -212.25 -191.55 -212.41  -148.1 -303.44 -271.18 -318.26 -270.48 38.7666 46.7179 -105.56 36.5285 33.1981 18.6869 20.9938  21.742 21.4444 20.6865 20.7136 14.9107
 -152.51 -179.86  35.449 0.29853 -135.82 -81.581 -153.01 -141.11 -221.56 -205.26 -217.95 -169.33 -302.18 -276.13 -309.52 -263.17  66.916 31.8477  -135.7 37.2709  31.373 19.4878 20.9034 21.7388 21.4142 20.6735  20.725 14.9108
 -123.63 -145.72 37.4194 -1.5342 -142.55 -95.585  -159.1 -145.66 -214.37 -202.56 -221.95 -181.32 -285.67 -262.48 -283.68 -236.64 95.0992  25.551 -152.45  35.542 31.3811 20.0235 20.8961 21.7203 21.3997 20.6592 20.7465 14.9108
 -89.965  -102.8 34.6584 1.36472 -140.64 -91.701 -149.62 -134.01 -188.74 -181.52 -223.64 -180.68 -253.43 -229.08 -240.42 -190.89 118.678 29.1607 -153.03 33.0236 31.8606 20.2421  20.976 21.6887  21.407  20.646 20.7809 14.9109
  -56.93 -57.449 26.8533 9.21445 -128.83 -68.524 -124.33 -106.18 -145.12 -142.77 -221.38 -165.32 -206.49 -177.17 -181.47 -128.99 133.037 42.4155 -136.74 32.3388 30.2828 20.0901 21.1394 21.6496 21.4317 20.6342 20.8222 14.9109
 -30.659 -17.369 14.6304  21.333 -107.29 -27.962 -85.724 -65.164 -86.996 -90.011 -213.55 -135.68 -147.82 -110.95 -111.26  -57.39 134.773 63.1735  -105.7 33.4143 26.7345 19.5505 21.3707 21.6074 21.4642 20.6224 20.8611  14.911
 -16.855 9.68039  -0.437  36.159 -78.158 24.6441  -39.33 -16.949 -21.164 -30.059 -199.93  -95.68 -83.016 -38.029  -37.41 14.4405 122.824 87.5564 -65.049  33.566 24.0089  18.634 21.6331 21.5629 21.4997 20.6106 20.8944  14.911
 -19.595 17.5004 -16.031 51.4382 -45.643 81.2786 7.00739 30.3541 43.0476 28.1457 -182.58 -52.347 -20.287 30.9687 29.8107 75.6422 99.0205 110.665 -22.238 31.2169 23.9051 17.3536 21.8695 21.5179 21.5382 20.6019 20.9261 14.9111
 -40.219 3.06112  -29.59 64.6815  -15.07 132.991 44.9352 68.4803 95.8036 75.6038 -165.15 -13.876 30.9682 84.6587 79.7374 116.642 67.6093 127.818 14.7538 28.1805 24.8559 15.7019 22.0225 21.4802 21.5758 20.6016 20.9588 14.9111
 -76.609 -32.326 -39.011 73.8242 8.56206  172.12 67.8803 91.3103 129.478 105.708 -151.33 13.0136 62.7103 114.071 104.405 131.719 33.9107 135.836 39.5794 27.3435 24.2323 13.6375 22.0582 21.4595 21.6019 20.6118 20.9884 14.9111
 -123.41  -83.04 -43.194 77.7733  21.838 193.956 72.6282 96.2235 140.549 115.694 -143.39  24.929  70.466 115.029 100.781  120.14  2.8052 133.707 48.8963 29.0041 22.1176 11.0994 21.9722 21.4582 21.6078 20.6283 21.0065 14.9112
 -173.44 -140.81 -42.154 76.5379 23.4357 197.151 59.4636 83.8966 129.723   106.4 -141.82 22.0275 54.0637 88.6354 71.0421 85.6429 -22.259  122.38 42.3653 30.9135 21.3814 8.05138 21.7767 21.4672 21.5959 20.6438 21.0083 14.9112
 -219.72 -197.22 -36.707 70.9257  13.886 183.049 31.1436 57.0852 100.607 80.8867 -145.74 6.91588 17.0193 40.1558 21.1594 34.7476 -39.504 104.031 21.6989 31.9922 23.9498 4.54625 21.4882 21.4754 21.5779 20.6517 20.9963 14.9113
 -256.97 -245.68 -27.996 62.0593 -5.0195  154.61 -8.4334 19.3451  58.042 43.0429 -153.57 -16.786 -34.722 -22.849 -41.171 -25.263 -48.531 81.2462 -10.419 34.6801 28.3957 0.78801 21.1283 21.4801 21.5628  20.648 20.9763 14.9113
 -282.17 -282.08 -17.134 51.0124 -30.811 115.516 -55.196 -25.742 6.95342 -3.2509 -163.48 -45.456 -94.136 -92.294 -108.26 -87.801 -49.878 56.3918 -51.029  42.648 32.1902 -2.8342 20.7277 21.4876 21.5496 20.6303 20.9528 14.9114
 -294.31 -304.66 -5.0665 38.6852  -60.78 69.6464 -105.36 -74.833 -48.147 -54.409 -173.66 -75.898 -154.24 -160.76 -173.42 -147.55 -44.626 31.2986 -97.183 56.7351 35.4092 -5.7742  20.322 21.5039 21.5316 20.5965 20.9283 14.9114
 -293.94 -313.34 7.41591 25.8384  -92.27 20.7948  -155.6 -124.85 -103.26 -107.14 -182.48 -105.43 -208.95 -222.17 -231.32 -200.53  -34.14 7.19405 -146.01 73.6901  40.723 -7.4535 19.9427 21.5279  21.508 20.5475 20.9052 14.9114
 -282.67 -309.24 19.6418 13.1427 -122.85 -27.537 -203.01 -172.99  -154.9 -158.41 -188.61 -131.83  -253.6 -272.16 -278.15 -243.91  -19.92 -15.228 -194.75 88.7863 49.5669  -7.447 19.6118 21.5526 21.4863 20.4909 20.8872 14.9115
 -262.76 -294.19 31.0518 1.18593 -150.39 -72.334 -245.14 -216.75 -200.08 -205.42 -191.09 -153.37 -285.25 -308.15  -311.6 -275.94 -3.5059 -35.659  -240.8 99.7048 59.6195 -5.6383 19.3466 21.5728 21.4723  20.439 20.8769 14.9115
 -236.67 -270.43 41.2127  -9.547 -173.09 -111.22 -279.98 -254.02  -236.4 -245.68 -189.27 -168.81 -302.46  -329.1 -330.65 -295.76 13.6159 -53.992 -281.79 107.506 66.9433   -2.28 19.1633 21.5893 21.4643 20.4016 20.8725 14.9115
 -206.73 -240.33 49.8153 -18.687 -189.59 -142.54 -305.98 -283.15 -262.12 -277.19 -182.78 -177.43 -304.85 -335.11 -335.31  -303.3 30.0969 -70.181 -315.71 113.472 69.7606 2.06518 19.0739 21.6031 21.4581 20.3825 20.8682 14.9116
 -174.92 -206.17 56.6514 -25.976 -199.04 -165.39 -322.21 -303.03 -276.27 -298.51 -171.53 -179.05 -292.69 -326.98 -326.25 -299.17 44.8056 -84.155 -341.17 116.122 69.0416 6.68196 19.0837 21.6097 21.4552 20.3806 20.8588 14.9116
 -142.76 -169.95 61.5909 -31.253 -201.23 -179.53 -328.38 -313.14 -278.72 -308.91  -155.7 -173.95 -266.79 -305.97 -304.63 -284.53 56.8912 -95.796 -357.51 112.525 65.6671  10.915 19.1878 21.6038 21.4612 20.3933 20.8413 14.9117
 -111.33  -133.3 64.5701 -34.441  -196.5 -185.32 -324.85 -313.59 -270.02 -308.35 -135.72 -162.71 -228.59 -273.81 -272.06  -260.9 65.8195 -104.97 -364.79 102.088 58.5227 14.3572 19.3733 21.5881 21.4785 20.4175 20.8149 14.9117
 -81.325 -97.439 65.5886 -35.541 -185.66 -183.57 -312.47 -305.01  -251.3 -297.44 -112.28 -146.15 -180.25 -232.68 -230.56 -230.06 71.3684 -111.53 -363.48 87.8907 46.4339 16.9061 19.6239 21.5728 21.5023 20.4495 20.7809 14.9117
 -53.195 -63.252 64.7127 -34.624 -169.83  -175.4 -292.44 -288.49 -224.07 -277.35 -86.284 -125.28 -124.53 -185.14 -182.48 -193.89 73.5962 -115.42  -354.3 73.8046 31.3349 18.6819 19.9212 21.5657 21.5263  20.484 20.7429 14.9118
 -27.212 -31.373 62.0911 -31.855 -150.25 -162.11 -266.19  -265.4 -190.15 -249.69 -58.739 -101.22 -64.535 -133.87 -130.29 -154.28 72.7821 -116.62  -338.1 60.6689 18.5919 19.9016 20.2449 21.5664 21.5509 20.5141 20.7067 14.9118
 -3.5372 -2.2354  57.976 -27.508  -128.2 -145.09 -235.34 -237.38 -151.58 -216.38  -30.71 -75.183 -3.3192 -81.416 -76.447 -113.12 69.3505 -115.29 -315.91 46.0664 13.7386 20.7881  20.572 21.5718  21.581 20.5334 20.6784 14.9118
 17.7609 23.9035 52.7162 -21.964 -104.87 -125.68 -201.52 -206.12 -110.42 -179.48 -3.2082 -48.354 56.3813 -30.018 -23.164 -72.156 63.8136 -111.71 -288.99 28.0563 18.3794  21.514  20.882 21.5823 21.6175 20.5391 20.6619 14.9119
 36.7115   46.94 46.7257 -15.669 -81.246 -105.13 -166.26 -173.25 -68.618 -140.97 22.8928 -21.794  112.33 18.5362 27.7004 -32.892 56.7345 -106.28 -258.75 8.17632 29.2768 22.1462 21.1665 21.5992 21.6528  20.532 20.6582 14.9119
 53.4403 66.8854 40.4491 -9.0949 -58.139 -84.475 -130.89 -140.25 -27.855 -102.63 46.9205 3.58593 162.852 62.8568 74.6958 3.48069 48.6838 -99.422 -226.61 -9.9555 41.6554 22.6351 21.4328 21.6191 21.6786 20.5153 20.6671 14.9119
  68.134 83.8248 34.3242 -2.6953   -36.1 -64.549 -96.479 -108.27 10.5115 -65.868 68.4406 27.0473 206.826 101.894 116.803 36.1351  40.187 -91.555 -193.83 -24.028 52.8131 22.8866 21.6957 21.6306 21.6941 20.4932 20.6888  14.912
 80.9902  97.895 28.7416 3.13619 -15.457 -45.923 -63.786 -78.172 45.5096 -31.755 87.2535 48.0385 243.652 134.956  153.45 64.6073 31.6854 -83.017 -161.46 -33.967 61.9748 22.8345 21.9646 21.6192 21.7041 20.4708 20.7226  14.912
 92.1881  109.29 24.0037 8.10423 3.66167 -28.927 -33.286 -50.467 76.5552 -0.9616 103.358 66.2274 273.182 161.747 184.474 88.7498 23.5179 -74.074 -130.27 -40.294 67.7417 22.4725 22.2399 21.5774 21.7094 20.4531 20.7638  14.912
 101.876 118.266 20.2943 12.0319 21.2683 -13.671 -5.1811 -25.391 103.422 26.1939 116.894 81.5031 295.631 182.338 210.053 108.666 15.9174 -64.921  -100.8 -42.724  67.624 21.8752 22.5193 21.5084 21.7038 20.4425 20.8052 14.9121
 110.157 125.119 17.6695 14.8615 37.4626 -0.0877 20.5478 -2.9429 126.198 49.7052  128.07 93.9378 311.471 197.064  230.62  124.65 9.02568 -55.674 -73.317 -40.754 60.5514 21.1808 22.8038 21.4222 21.6799 20.4374 20.8408 14.9121
 117.086 130.142 16.0687  16.646 52.3784 12.0042  44.072 17.0573 145.213 69.8148 137.097  103.73  321.32 206.456 246.778 137.128 2.92442 -46.386 -47.888 -35.399 48.9859 20.5229 23.0977  21.329 21.6388 20.4332 20.8686 14.9121
 122.678 133.581 15.3311 17.5425 66.1353 22.8443 65.6209 34.8861 160.934 86.9166 144.142 111.158 325.816 211.206 259.198 146.598   -2.34 -37.097 -24.446  -29.09 37.6405 19.9887 23.3975 21.2386 21.5918 20.4258 20.8906 14.9122
 126.946 135.643  15.214 17.7963 78.8057 32.6847 85.4116 50.8503 173.857 101.457 149.315 116.561 325.562 212.111 268.516 153.571 -6.7482 -27.858 -2.8727 -23.001 29.4974 19.6341 23.6859 21.1618  21.551 20.4129 20.9097 14.9122
  129.97 136.555 15.4279 17.6991 90.4139 41.7666 103.627 65.2445 184.473  113.87  152.69 120.329 321.165 209.986 275.283  158.53 -10.316 -18.735 16.9894 -15.672 23.5726 19.4913 23.9437 21.1113 21.5216 20.3943  20.928 14.9122
  131.95 136.601 15.6885 17.5343 100.955 50.3032 120.412 78.3179 193.228 124.534 154.341 122.864 313.301 205.595 279.935 161.867 -13.102  -9.799 35.3341 -5.3113 17.3731 19.5494 24.1587 21.0968 21.5024 20.3706 20.9466 14.9122
 133.195 136.099 15.7604 17.5386 110.409 58.4605 135.866 90.2412 200.479 133.732 154.376  124.53 302.705 199.621 282.776  163.85 -15.198 -1.1225 52.3632 7.18961  10.806 19.7628 24.3218 21.1177 21.4936 20.3423 20.9667 14.9123
 134.026 135.339  15.476 17.8894 118.752 66.3481 150.039 101.103  206.45 141.638 152.938 125.628 290.094 192.664 283.972 164.632 -16.724 7.22762 68.2499 18.6553 6.36507 20.0798 24.4188 21.1629 21.4992 20.3113 20.9905 14.9123
  134.67 134.542 14.7376  18.701 125.964 74.0315 162.969 110.948 211.241 148.349 150.164 126.391  276.09 185.232 283.569 164.304 -17.807 15.2182 83.1384 27.2215 5.49528 20.4438 24.4354 21.2188 21.5199 20.2832 21.0199 14.9123
 135.244 133.852  13.512  20.017 132.031 81.5557 174.714 119.818 214.855 153.915 146.143 127.003  261.18 177.702  281.53 162.932 -18.578  22.875 97.1736 34.3649 6.26153 20.7865 24.3721 21.2763  21.547 20.2659 21.0554 14.9124
 135.821 133.354 11.8229 21.8111 136.937 88.9632 185.364 127.771 217.231  158.35 140.942 127.602 245.735 170.263 277.773 160.546 -19.169 30.2793 110.521 42.3532 5.67576 21.0521 24.2496  21.331 21.5689 20.2651 21.0953 14.9124
 136.448 133.085 9.74287 24.0028 140.673 96.2967 195.018 134.874 218.272  161.66 134.653 128.266 230.064 162.947 272.226 157.129 -19.706 37.5332 123.358 50.4293 3.48249 21.2298 24.0972 21.3792 21.5816 20.2806 21.1374 14.9124
 137.083 133.031 7.37379 26.4853 143.249 103.591 203.744 141.204 217.889 163.878 127.415 129.003 214.449 155.734 264.882  152.66 -20.299 44.7133 135.838 54.7411 2.23954 21.3514  23.935 21.4166 21.5918 20.3083 21.1818 14.9124
 137.568 133.132 4.81641 29.1552 144.692 110.863 211.548 146.833 216.026 165.068 119.388 129.758 199.131 148.647 255.817  147.14 -21.035 51.8504 148.058 52.1026 3.59751  21.456 23.7654 21.4402 21.6088 20.3452 21.2308 14.9125
 137.671 133.283 2.14987  31.929 145.027 118.103 218.356 151.813 212.651 165.288 110.735  130.46 184.296 141.747 245.175 140.599 -21.972 58.9532 160.047 42.8521 5.90586 21.5511  23.585 21.4515 21.6348 20.3893 21.2847 14.9125
 137.155 133.326 -0.5628 34.7377 144.263 125.262 224.027  156.18 207.765 164.572 101.619 131.032 170.082 135.078 233.142 133.109 -23.118 66.0408 171.788 29.3162  6.4943 21.6043 23.3982  21.456 21.6629 20.4341 21.3386 14.9125
 135.818 133.053 -3.2576 37.5145 142.396 132.246  228.38 159.966 201.412 162.945 92.2039 131.388 156.578 128.632 219.925 124.788 -24.438 73.1475 183.235 12.2276 5.42597 21.5651 23.2163 21.4579 21.6855 20.4679 21.3858 14.9125
 133.499 132.253 -5.8662 40.1952 139.413 138.903 231.214 163.182 193.661  160.42   82.64 131.434 143.769 122.359 205.707 115.781 -25.879 80.3063  194.29 -9.7967  5.5526 21.3673  23.045  21.458 21.7024 20.4811  21.425 14.9126
 130.089 130.764 -8.3354 42.7338 135.293  145.02 232.319 165.793  184.58 156.991 73.0426 131.088 131.506 116.176 190.619 106.246 -27.399 87.5355 204.783 -36.844 8.76969 20.9256 22.8806 21.4563 21.7192 20.4743 21.4615 14.9126
 125.529 128.507 -10.645 45.1136 130.035 150.348 231.519 167.708 174.231  152.64  63.471 130.311 119.557 109.965  174.74 96.3396 -28.957  94.837 214.517   -65.2 13.5941 20.1767 22.7211 21.4572 21.7353 20.4585  21.501 14.9126
 119.826 125.482 -12.799 47.3389 123.677 154.642 228.712 168.787 162.699 147.368 53.9301 129.099 107.714 103.602 158.113 86.2162 -30.497 102.197 223.311 -89.234 17.4083 19.1213 22.5771 21.4658 21.7409 20.4482 21.5439 14.9126
 113.105 121.734 -14.804 49.4152 116.306 157.709 223.895 168.869 150.094 141.206 44.4079 127.447 95.8557 96.9786 140.772 76.0066 -31.956 109.585 231.018 -105.02 20.1647 17.8036 22.4659 21.4804 21.7295 20.4504 21.5841 14.9127
 105.601  117.33 -16.651 51.3344 108.065 159.446 217.169 167.808 136.569 134.243 34.9193 125.312 83.9329 90.0121 122.773 65.8133 -33.286  116.95 237.501 -111.68 24.3802 16.2575 22.3967  21.491 21.7106 20.4616 21.6156 14.9127
 97.5963 112.326 -18.324 53.0734  99.139 159.859 208.706 165.514 122.325 126.627 25.5169  122.61 71.9199 82.6594  104.22 55.7078 -34.464 124.215 242.614 -109.89 31.3214 14.4852 22.3646 21.4876 21.7019 20.4749 21.6355 14.9127
 89.3507 106.757 -19.809 54.6004 89.7242 159.044 198.716 161.949 107.603 118.525 16.2768 119.248  59.781 74.9301 85.2719 45.7248 -35.462 131.291 246.218 -100.04 38.5093 12.4946 22.3586 21.4683 21.7137 20.4873 21.6441 14.9127
 81.1001  100.67 -21.087   55.88 80.0019  157.14 187.436  157.11   92.65 110.071 7.28267 115.171 47.4963 66.8689 66.1353 35.8453 -36.229 138.088 248.202 -82.117 41.9026 10.3489 22.3675 21.4396 21.7419 20.5006 21.6421 14.9128
 73.0612 94.1379 -22.127 56.8787 70.1306 154.287  175.14 151.007  77.687 101.323 -1.3911 110.395 35.1257 58.5243 47.0565 25.9868 -36.691 144.534 248.504  -57.16 39.7175 8.16362 22.3796 21.4098 21.7775 20.5167 21.6302 14.9128
 65.3769 87.2381 -22.885 57.5756 60.2644 150.649 162.139 143.699 62.9173 92.2936 -9.7041     105  22.849 49.9402  28.325 16.0598 -36.786 150.592 247.139  -28.58 33.0379 6.05352 22.3832 21.3818 21.8196 20.5369 21.6096 14.9128
 58.0749 80.0332 -23.324 57.9708 50.5662 146.462 148.771 135.352 48.5587 83.0303 -17.653 99.1091  10.944 41.2006 10.2701 6.06957  -36.49  156.27 244.206 -1.1014 22.9877 4.10069 22.3659 21.3559 21.8744 20.5637  21.582 14.9128
 51.1309 72.6337 -23.428 58.0828 41.1999 142.046  135.36 126.238 34.8454 73.6562 -25.232 92.8997 -0.2907 32.4864 -6.7852 -3.8414 -35.816  161.61 239.861 22.6722 8.89908 2.36093 22.3208 21.3349 21.9436 20.5983 21.5485 14.9128
 44.5606 65.2475 -23.213 57.9388 32.3085 137.737 122.174 116.684 22.0028  64.333 -32.395  86.594   -10.6  24.061 -22.585 -13.445 -34.794 166.671 234.282 43.9891 -9.5776   0.873 22.2501 21.3263 22.0188 20.6377 21.5074 14.9129
 38.4293 58.1275 -22.721  57.569 23.9862 133.819 109.401 107.023 10.2391 55.2478 -39.063 80.4087 -19.792 16.1954 -36.955 -22.494 -33.452 171.509 227.654 65.1106 -29.278 -0.3315 22.1633  21.334 22.0885 20.6756 21.4551 14.9129
 32.8058 51.4794 -22.011 57.0076 16.2689 130.493 97.1466 97.5695  -0.238 46.6572 -45.152 74.5019 -27.751 9.10473 -49.778 -30.743 -31.829 176.154 220.171 85.2204 -43.792 -1.2334 22.0711 21.3522 22.1483 20.7072 21.3908 14.9129
  27.738 45.4403 -21.137 56.2912 9.16266 127.863 85.4677 88.6219 -9.2052 38.9171 -50.592 68.9892 -34.439 2.92284 -60.961 -37.941  -29.98 180.616 212.015 100.102 -47.581 -1.8624 21.9778   21.37 22.2012 20.7319 21.3184 14.9129
 23.2607 40.1159 -20.134 55.4564 2.68031 125.948 74.4118 80.4653 -16.422 32.4462 -55.321 64.0062  -39.85 -2.2941 -70.421 -43.825 -27.965  184.88 203.377 105.934 -40.012 -2.3123 21.8803 21.3818 22.2478 20.7528  21.243 14.9129
 19.3856 35.5873  -19.02  54.531 -3.1387 124.715 64.0551 73.3821  -21.65 27.6517 -59.311 59.7183 -43.969 -6.5321 -78.095 -48.147  -25.83 188.931 194.492 102.995 -25.312 -2.7222 21.7754 21.3885 22.2795 20.7725 21.1694  14.913
 16.0643 31.8675 -17.794 53.5209 -8.2233 124.125 54.5215 67.6553 -24.692 24.8661 -62.587 56.2579 -46.825 -9.7709  -83.96 -50.693 -23.615 192.765 185.665 95.2597 -8.6686 -3.2449 21.6629 21.3909 22.2835 20.7912 21.1038  14.913
 13.1509 28.8511 -16.443 52.4119 -12.474  124.18 45.9839 63.5563 -25.444  24.317 -65.238 53.6523  -48.56 -11.968 -88.059 -51.304 -21.365 196.402 177.241 86.6287 7.24853 -3.9946  21.541  21.386  22.256 20.8071 21.0526  14.913
 10.3987  26.293 -14.966 51.1973 -15.783 124.933 38.6361 61.3166  -23.94 26.1071  -67.41 51.7999 -49.432 -13.097 -90.527 -49.903  -19.16 199.862 169.529 78.3726 21.7998 -5.0047 21.3997 21.3732 22.2036 20.8183 21.0191  14.913
 7.49835 23.8034 -13.408 49.9121 -18.069 126.455 32.6275 61.0604 -20.401 30.1724 -69.281 50.4894 -49.769 -13.236 -91.615 -46.579 -17.122 203.116 162.723 70.0665 33.5655   -6.24  21.228 21.3589 22.1338 20.8237 21.0002  14.913
  4.1201 20.8638 -11.875 48.6474 -19.346 128.771 27.9899 62.7066 -15.254 36.2312 -71.033 49.4352 -49.937 -12.664 -91.716 -41.672 -15.413 206.013 156.842  61.921  39.737 -7.6456 21.0292 21.3539 22.0496 20.8239 20.9899 14.9131
 -0.0648 16.8857 -10.538 47.5451 -19.791 131.823 24.5874 65.9031 -9.1083 43.7617 -72.861 48.3204 -50.383 -11.892 -91.386 -35.813 -14.226 208.227 151.689 55.2968 38.7125 -9.1838 20.8264 21.3652 21.9553 20.8188 20.9845 14.9131
 -5.3899 11.2727 -9.6087 46.7783 -19.777 135.458 22.0849 70.0408 -2.7259 52.0203  -74.99 46.8246 -51.687 -11.609 -91.312  -29.88 -13.785 209.258 146.837 50.6661 32.4724 -10.826 20.6486 21.3911 21.8607 20.8073 20.9856 14.9131
 -12.226 3.43475 -9.3021 46.5218 -19.849 139.431 19.9176 74.3205  3.0063 60.0753 -77.707 44.6232 -54.587 -12.622 -92.292 -24.912 -14.312 208.482 141.631  46.517 25.4681 -12.521 20.5101 21.4257 21.7786 20.7892  20.997 14.9131
 -21.018 -7.2198 -9.7924 46.9193  -20.68 143.352 17.2934 77.8165 7.08086 66.8304 -81.375 41.3627 -59.968 -15.857  -95.22 -22.011  -15.99 205.235 135.228 41.7485 20.6283 -14.188 20.4069  21.467  21.716 20.7651 21.0185 14.9131
 -32.259 -21.263  -11.16 48.0282  -22.96 146.613 13.2784 79.5247 8.39604 71.0378 -86.414 36.6081 -68.814 -22.369 -101.05 -22.283 -18.895 198.921 126.715 37.9923 17.0489 -15.725 20.3314 21.5186 21.6716 20.7345 21.0435 14.9131
 -46.356 -39.144 -13.309 49.7406 -27.279 148.303 6.94353 78.4012 5.83139 71.3361 -93.224 29.7931 -82.104 -33.314 -110.71 -26.809 -22.885 189.147 115.232 37.9474  12.387 -17.024 20.2801 21.5842 21.6402 20.6943 21.0641 14.9132
 -63.469  -61.01 -15.918 51.7333 -34.034 147.189  -2.487 73.4276 -1.6118 66.3764 -102.12 20.2292 -100.58 -49.765 -124.88 -36.563 -27.508 175.824  100.07 41.9085 6.72566 -17.982 20.2478 21.6602   21.62 20.6418 21.0776 14.9132
  -83.38 -86.535 -18.462 53.4989 -43.411 141.825 -15.516 63.7448 -14.615 55.0612 -113.27 7.18882 -124.51  -72.41 -143.84 -52.177 -31.947 159.205 80.7347 47.3562 2.73019 -18.517 20.2175 21.7364 21.6162 20.5777 21.0882 14.9132
 -105.36 -114.72  -20.31 54.4519 -55.398 130.771 -32.287 48.8469 -33.331 36.8395 -126.62 -9.9322 -153.45 -101.26 -167.21 -73.624 -35.015 139.856 57.0152 52.2322  1.9949 -18.569  20.166 21.8047 21.6335 20.5055 21.1003 14.9132
 -127.98 -143.71 -20.861 54.0698 -69.776 112.904 -52.501 28.7847 -57.192 11.9852  -141.8 -31.409 -186.12 -135.42 -193.83  -99.92 -35.224 118.613 29.0997 57.3619 2.70358  -18.11 20.0849 21.8644 21.6682 20.4295 21.1127 14.9132
 -149.06 -170.78 -19.709 52.0324 -86.069 87.8171 -75.313 4.33763 -84.772 -18.198 -158.17 -56.998 -220.33 -172.99 -221.63 -128.93 -30.956 96.5528 -2.2724 64.5718 1.95398 -17.152 19.9924 21.9179 21.7093 20.3534 21.1212 14.9132
 -165.82 -192.45 -16.795  48.345 -103.46 56.2681 -99.211 -22.841 -113.71 -51.298 -174.93 -85.776 -253.02 -210.95 -247.66 -157.39 -20.764 75.0179 -35.648 72.9807  -0.455 -15.752 19.9244 21.9609 21.7496 20.2803  21.124 14.9133
 -175.38 -205.04 -12.526 43.4458 -120.68 20.6032 -121.91 -50.128 -140.75 -83.876 -191.28    -116 -280.54 -245.23  -268.2 -181.01 -3.8107 55.7105 -68.737 78.4457 -1.9386 -14.002 19.9134 21.9822 21.7908 20.2124 21.1237 14.9133
 -175.39 -205.31 -7.8177 38.2579 -135.97 -15.086 -140.41 -74.003 -161.99 -111.77 -206.46 -145.02 -299.03 -270.96 -279.16 -194.99 19.6623 40.7196 -98.444 77.0787 -0.8417 -12.003 19.9757 21.9729 21.8374 20.1517  21.125 14.9133
 -164.72 -191.48  -3.983 34.0823 -147.18 -45.364 -151.39 -90.492 -173.43 -130.67 -219.69 -169.43 -304.99 -283.27 -276.82 -194.75 47.9784 32.3169 -121.22 68.5914 1.17322 -9.8461 20.1185 21.9336 21.8892 20.0993 21.1319 14.9133
 -144.09 -164.06 -2.4155  32.287 -152.08 -64.544 -151.86 -96.009 -171.77    -137 -229.97 -185.48 -295.98 -278.31 -258.69 -177.03 77.9993  32.444 -133.79 55.4746 1.41391 -7.6375 20.3476 21.8724 21.9397 20.0557 21.1423 14.9133
 -116.31 -126.34 -4.1939 33.9174  -148.9 -68.161 -140.13 -88.411 -155.36 -128.81 -235.83 -189.76 -270.96 -254.19    -224 -141.11 105.542 42.0016 -134.05  39.383 -0.0816 -5.4959 20.6624 21.7991 21.9832 20.0206 21.1497 14.9133
 -85.938 -83.991 -9.7965 39.4198 -136.84 -54.257 -116.52 -67.839 -124.82 -106.52 -235.25 -179.93 -230.57 -211.51 -174.28 -89.524 126.169 60.2141 -121.97 19.8407 -0.4814 -3.5224 21.0451 21.7199 22.0226 19.9945  21.152 14.9133
 -58.549 -44.176 -18.986 48.5382 -116.63 -24.048 -83.853 -37.065 -83.421 -73.186 -226.47 -155.79 -177.46 -153.72 -113.73 -28.182 136.209 84.3786 -99.961 -2.9742 2.10462 -1.7696 21.4591 21.6389 22.0663 19.9795 21.1565 14.9134
 -39.731 -14.243 -30.799 60.3091 -90.704 18.1141 -47.242 -1.2141  -36.83 -34.207 -209.41 -120.24 -116.83 -87.459 -49.426 34.3188 133.787 110.207 -72.735  -25.92 6.21426 -0.2336 21.8614 21.5619 22.1155 19.9782 21.1735 14.9134
 -34.043 -0.3842 -43.623 73.1392 -62.946 65.4796  -13.29 33.1421 7.60553 3.47526 -186.62 -79.282 -56.439 -22.187 9.49493 88.1637 119.493 132.734 -46.435 -44.849 9.28989 1.11579 22.2155 21.4957 22.1583 19.9892 21.2076 14.9134
 -44.018 -6.2812 -55.472  85.065 -37.912  110.28 11.3173 59.4013 42.3151 32.8547 -162.74 -40.635 -5.3372 31.5393 53.6739 124.423 96.2664 147.514 -27.263 -58.158 11.3974 2.30198 22.4928 21.4447 22.1784 20.0065  21.256 14.9134
 -69.322 -31.997 -64.468 94.2128 -19.718 145.458  21.459  72.497  61.351 48.5525 -142.69 -11.431  28.335 64.6406 75.9055 137.216 68.4474  151.65 -20.011 -67.537 15.2349 3.35406 22.6665 21.4096 22.1687 20.0258 21.3127 14.9134
 -106.48 -73.657 -69.333  99.279 -11.088 166.136 14.8255 70.0107 61.8686 48.0209 -129.89  3.8761 39.4989 71.8531  73.026 125.079 40.4947 144.323 -27.026 -75.602 22.3293 4.33631 22.7154 21.3905 22.1345 20.0473 21.3694 14.9134
 -149.59 -124.39 -69.638 99.7916 -12.922 170.275  -7.814 52.3386 44.4789 31.7142 -125.45 4.34957 27.1451 52.7711 46.4529 90.9312 15.9949  126.67 -48.023 -83.414  30.548 5.33567 22.6391 21.3893 22.0846 20.0727 21.4164 14.9134
 -191.95 -176.32 -65.723  96.056 -24.444 158.455 -43.348 21.9801 12.4355 2.29845 -128.48 -8.0124 -5.9184 11.3184 1.26371 40.7584 -2.7845 101.219 -80.688 -90.124 36.2757  6.4138 22.4598 21.4077 22.0235 20.1014 21.4465 14.9135
  -227.8 -222.63  -58.39 88.8686 -43.722 133.127 -87.532 -17.532 -29.753 -36.546  -136.9 -29.626 -54.137 -45.773 -55.555 -18.288 -14.868 71.1333 -121.64 -94.572 38.1976  7.5656 22.2109 21.4432 21.9511 20.1307 21.4576 14.9135
 -253.35 -258.71  -48.59 79.1878 -68.259 97.7423 -136.06  -62.54 -77.559 -81.132 -148.29 -56.577 -110.56 -110.68 -116.82 -79.502 -20.283  39.513 -167.28 -97.087  37.802 8.72253  21.927 21.4869 21.8726 20.1581 21.4519 14.9135
 -266.94 -282.22 -37.218 67.9243 -95.461   56.06 -185.17 -109.75 -127.08 -128.27  -160.3 -85.337  -168.1 -175.89 -176.24 -137.49 -19.725 8.88874 -214.31 -99.341 36.3826 9.81437 21.6386 21.5283 21.7991 20.1853 21.4329 14.9135
 -268.63 -292.67 -25.059 55.8774 -122.93  11.718 -231.82 -156.38 -175.17 -175.32 -170.95    -113  -220.6 -235.07  -228.9 -188.36 -14.275 -18.988 -259.85 -102.43 33.0443 10.8293 21.3721 21.5615 21.7388 20.2166 21.4043 14.9135
  -259.7 -290.82 -12.799 43.7436 -148.59 -31.993 -273.66 -200.05 -219.26 -220.04 -178.78 -137.29 -263.39 -283.54 -271.29  -229.6 -5.2105 -43.101  -301.5 -105.45 26.6979 11.7947 21.1498 21.5863 21.6902 20.2543 21.3676 14.9135
 -242.09 -278.23 -1.0318 32.1247 -170.72 -72.265 -308.86 -238.75 -257.24 -260.41 -182.73 -156.52 -293.47  -318.4 -301.21 -259.79 6.12963 -62.992 -337.27 -106.07  19.155 12.7126 20.9872 21.6028 21.6468 20.2958  21.324 14.9135
 -218.04 -256.92 9.74029 21.5271 -187.95 -106.88 -336.13 -270.82  -287.4 -294.61 -182.19 -169.61 -309.25 -338.41 -317.61 -278.38  18.426 -78.562 -365.81 -102.22 14.7082  13.542 20.8884 21.6076 21.6043  20.336 21.2766 14.9135
 -189.79 -229.14 19.1032 12.3603 -199.29 -134.28  -354.7 -294.93 -308.43 -321.06 -176.86    -176 -310.26 -343.58 -320.33 -285.45 30.4623 -89.928 -386.52 -92.751 16.1765 14.2182 20.8451 21.5988 21.5621 20.3708 21.2293 14.9136
 -159.37 -197.15 26.7447 4.92583 -204.21 -153.56 -364.33 -310.16 -319.45 -338.51 -166.79 -175.66  -296.8 -334.74 -309.85 -281.58 41.2024 -97.327 -399.52 -76.861 22.1224 14.6638 20.8436   21.58 21.5201 20.4001 21.1851 14.9136
 -128.47 -162.98 32.4704 -0.5964 -202.65 -164.46 -365.19 -316.05 -320.07 -346.15 -152.33 -168.91 -269.89 -313.31 -287.14  -267.7 49.8449 -101.08 -405.36 -53.901 28.5425 14.8155 20.8751 21.5592 21.4766 20.4276 21.1455 14.9136
 -98.338 -128.37 36.2029 -4.1442 -194.99 -167.26 -357.69  -312.6 -310.39  -343.7 -134.04 -156.43 -231.25 -281.21 -253.65 -245.04 55.8647 -101.54 -404.72   -24.1 32.7017 14.6695 20.9388  21.543 21.4304 20.4574 21.1119 14.9136
 -69.806 -94.633 37.9695 -5.7565 -182.03 -162.69 -342.39 -300.28    -291 -331.41 -112.68 -139.11  -183.3 -240.78 -211.28 -215.08 59.0333 -99.132 -398.16 10.1041  34.902 14.3096 21.0374 21.5313 21.3839 20.4902 21.0848 14.9136
 -43.334 -62.644 37.8937 -5.5581  -164.8 -151.79 -319.99 -280.01 -262.94 -310.07 -89.061 -117.98  -128.9 -194.49 -162.22 -179.39  59.404 -94.308 -386.06 44.0532 36.7769 13.9049 21.1702 21.5201  21.342 20.5236 21.0647 14.9136
 -19.117 -32.918 36.1821  -3.746 -144.45 -135.84 -291.42 -253.07 -227.59 -280.89 -64.099 -94.154 -71.014 -144.81 -108.79 -139.67 57.2613 -87.598 -368.57 73.1807 38.2446 13.6738 21.3324 21.5081 21.3056 20.5541 21.0501 14.9136
 2.81977 -5.6926 33.1005 -0.5749 -122.13 -116.19 -257.85 -220.97 -186.61 -245.45 -38.707 -68.728 -12.355 -94.014 -53.225  -97.61 53.0395 -79.552 -345.82 95.7582 36.9273 13.8159 21.5214 21.4989  21.269 20.5781 21.0375 14.9136
 22.5321 18.9572 28.9444 3.66415 -98.886 -94.174 -220.63 -185.34 -141.78 -205.51 -13.756 -42.752  44.771 -44.116 2.42652 -54.854 47.2285 -70.674 -318.11 113.209 30.9793  14.431 21.7354  21.495  21.228 20.5939 21.0241 14.9137
 40.1249 41.0423 24.0129 8.67395 -75.597 -70.999 -181.14 -147.77 -94.865 -162.87 10.0085 -17.161 98.5203 3.23124 56.4034 -12.906 40.3002 -61.381 -286.04 127.141 21.8678 15.4674 21.9667 21.4942 21.1888 20.6014 21.0097 14.9137
 55.7447 60.6421 18.5883 14.1784 -52.981 -47.675 -140.69 -109.66  -47.54 -119.22 32.0303 7.30783 147.531 46.8037 107.275 26.9891 32.6698 -51.984 -250.57 136.878 13.5205 16.7401 22.1967 21.4914 21.1656 20.6028 20.9963 14.9137
 69.5715  77.896 12.9229 19.9346  -31.57 -24.986 -100.49  -72.17 -1.2881 -75.983   51.97 30.1486 190.921 85.8082 153.932 63.8947 24.6857 -42.685 -212.86 141.087 8.39777 18.0267 22.4033 21.4843 21.1684 20.6027 20.9865 14.9137
 81.7947 92.9731 7.22946  25.733 -11.734 -3.5093 -61.558 -36.209 42.6189 -34.325 69.6762 51.0468 228.219 119.821 195.538 97.1494 16.6361 -33.577  -174.1 140.744 5.20167 19.1781 22.5736 21.4747 21.1944  20.605 20.9828 14.9137
 92.5891 106.038 1.68008 31.3947 6.29051 16.3568 -24.737 -2.4702 83.1373  4.8248  85.132 69.8237 259.264 148.681 231.503 126.306 8.76412 -24.679  -135.4 138.748  1.2807 20.1491 22.7096 21.4643 21.2324 20.6095 20.9879 14.9137
 102.108 117.244 -3.5866 36.7743 22.3892 34.3708 9.33368 28.5527 119.478 40.7696 98.4155 86.4044 284.151 172.406 261.481 151.103 1.27813 -15.976 -97.724 136.402 -3.5082 20.9493 22.8232 21.4503 21.2747 20.6121 21.0024 14.9137
 110.476 126.736 -8.4618 41.7674 36.5621 50.4476 40.2339 56.5613 151.131 73.0553 109.662 100.811 303.136 191.182  285.37  171.47 -5.6476 -7.4628 -61.834 131.623 -6.6533 21.5943 22.9217  21.428 21.3217 20.6099 21.0234 14.9137
 117.779 134.645 -12.875  46.315 48.9027 64.6552 67.7479 81.4555 177.868 101.473 119.016 113.158 316.534 205.351 303.275  187.55 -11.874 0.85206 -28.304 121.579 -6.6548 22.0894 23.0017 21.3995 21.3745 20.6049 21.0453 14.9137
 124.045 141.074 -16.809 50.4049 59.5624 77.1838 91.8421 103.316 199.706  126.03 126.587 123.622 324.687 215.354 315.467 199.663   -17.3 8.96304 2.49885 106.246 -5.3781 22.4411   23.06 21.3749 21.4246 20.6011 21.0614 14.9137
 129.257 146.105 -20.312 54.0802  68.718 88.2876 112.641 122.354 216.863 146.889 132.427 132.389 328.006 221.715 322.348 208.236  -21.88 16.8886 30.4228  88.146 -5.7412 22.6752 23.1032 21.3642 21.4585 20.6009 21.0681 14.9138
 133.384 149.808 -23.491 57.4385 76.5497 98.2277 130.396 138.846 229.698   164.3 136.543 139.629 326.976 225.036 324.421 213.716 -25.623 24.6648 55.5028 68.8613 -7.9363 22.8328 23.1415 21.3678 21.4711 20.6053 21.0672 14.9138
 136.429 152.276 -26.484 60.6068 83.2296 107.237 145.451 153.107 238.652 178.561  138.93 145.479 322.142 225.932 322.249 216.524 -28.593 32.3314 77.9136 47.4685 -9.3515 22.9561 23.1754 21.3774 21.4705 20.6159  21.066 14.9138
 138.467 153.664 -29.411 63.6969 88.9189 115.501 158.197 165.471 244.185 189.988 139.611 150.069 314.103 224.946 316.437 217.054  -30.88 39.9302  97.919 23.2342 -8.2881 23.0835 23.1925 21.3843  21.469 20.6357 21.0715 14.9138
 139.649 154.187 -32.339 66.7714 93.7525 123.156 169.049 176.277 246.734 198.879 138.633  153.53 303.461 222.479 307.613 215.659 -32.581 47.5053  115.83 -1.5432 -6.3491 23.2635 23.1821 21.3863 21.4731 20.6656  21.085 14.9138
 140.161 154.073 -35.274 69.8368 97.8192 130.277 178.397  185.82 246.677 205.462 136.056     156 290.774 218.798 296.393 212.618 -33.792 55.0967 131.957  -22.81 -6.1499 23.5596 23.1455 21.3865 21.4822 20.7022 21.1009 14.9138
 140.155 153.502 -38.166 72.8424 101.178 136.886 186.582 194.302 244.324  209.86  131.98 157.604 276.549 214.074 283.336 208.095 -34.606  62.736 146.563 -38.228 -7.5554 24.0082 23.0931 21.3863 21.4946 20.7386 21.1113 14.9138
 139.701 152.572  -40.91 75.6849 103.907 142.959 193.898 201.831 239.927 212.113 126.579 158.423 261.236 208.416 268.934 202.154 -35.127 70.4424 159.847 -48.148 -7.6153 24.5665 23.0323 21.3821 21.5138 20.7698 21.1147 14.9138
 138.803 151.305  -43.38 78.2389 106.122 148.444   200.6 208.449 233.717 212.235 120.092 158.495 245.233 201.881 253.623 194.834 -35.461 78.2179 171.951 -53.245 -4.3007 25.1145 22.9615 21.3702 21.5481 20.7955 21.1186 14.9138
 137.428 149.673 -45.468 80.3956 107.954 153.274 206.902 214.158 225.927 210.279 112.784 157.841 228.922  194.53 237.786 186.208 -35.701  86.051 183.001 -52.751 1.07877 25.5096 22.8786  21.353 21.6008 20.8185 21.1326 14.9138
 135.528 147.601 -47.103 82.0764 109.524 157.379 212.948 218.936 216.805 206.357 104.908 156.473 212.698 186.466 221.745 176.419 -35.906 93.9241 193.141 -46.114 6.11796 25.6596 22.7913 21.3401 21.6656 20.8407 21.1583 14.9138
 133.051 144.971 -48.234 83.2286 110.932 160.696  218.79  222.75 206.617 200.617 96.6875 154.388 196.965 177.821 205.756 165.661 -36.093  101.81 202.549 -35.549  11.011 25.5624 22.7127 21.3397 21.7325  20.861 21.1884 14.9138
  129.96 141.645 -48.821 83.8272 112.251 163.199 224.367 225.571 195.632  193.25 88.3063 151.585 182.095 168.743  190.02 154.154 -36.265  109.66 211.399  -25.51 18.5223  25.266 22.6487 21.3516 21.7967 20.8769 21.2143 14.9139
 126.247  137.54 -48.843 83.8774 113.501 164.899 229.505 227.382 184.083 184.497 79.9366 148.101 168.328 159.408 174.668 142.106 -36.425 117.412 219.825 -19.309  30.131  24.821 22.5931 21.3693 21.8582 20.8867  21.233 14.9139
 121.974 132.692 -48.307 83.4092 114.634 165.828 233.926 228.159  172.14 174.617  71.755 144.042 155.671 149.996  159.74 129.688 -36.576 125.006 227.895 -16.701 43.4733 24.2934 22.5373 21.3886 21.9149 20.8897 21.2456 14.9139
  117.27 127.238 -47.258 82.4741 115.554 166.009 237.286 227.863 159.898 163.849 63.9168 139.553 143.941 140.636 145.189 117.032 -36.708   132.4 235.623 -14.653 54.4371 23.7761 22.4756 21.4104 21.9584 20.8849  21.254 14.9139
 112.297 121.355 -45.782 81.1488 116.147 165.448  239.23 226.433 147.409 152.397 56.5154 134.781  132.85 131.396 130.922 104.243  -36.78 139.576 242.969 -10.105  60.956 23.3584  22.402 21.4351 21.9806 20.8706 21.2585 14.9139
 107.198   115.2 -43.993 79.5352 116.316 164.144 239.462  223.82 134.709 140.452 49.5621 129.828   122.1  122.33 116.847 91.4162 -36.753 146.534 249.847  -2.536 63.8334 23.1024 22.3104 21.4579 21.9836 20.8467 21.2597 14.9139
 102.049 108.897 -42.019 77.7524 116.005  162.13 237.809 220.046 121.852 128.215 42.9858 124.753 111.474 113.519 102.918 78.6432 -36.617 153.283 256.135 5.80754 64.2497 23.0406 22.1953   21.47 21.9786 20.8155 21.2602 14.9139
 96.8661  102.53 -39.983 75.9144 115.224 159.508 234.304 215.254 108.933   115.9 36.6744 119.601 100.883 105.051 89.1523 66.0265   -36.4 159.822 261.718 12.1928 61.9155 23.1751 22.0563 21.4661 21.9743 20.7814 21.2633 14.9139
 91.6677 96.1499 -37.974 74.1017 114.053 156.424 229.213 209.696 96.1052 103.713 30.5458 114.425 90.3353  96.987 75.6338 53.6683 -36.141 166.132 266.519 15.9898 56.6389  23.486 21.9006  21.448 21.9705  20.747 21.2688 14.9139
 86.5161 89.7917 -36.034 72.3457 112.615 153.023 222.995 203.648 83.5514 91.8123 24.5735 109.271 79.8668 89.3358 62.4859 41.6506 -35.861 172.173 270.515 19.0743 50.8128  23.936 21.7405 21.4199 21.9629 20.7126 21.2713 14.9139
 81.4682 83.4719  -34.16 70.6333 111.061 149.426 216.201 197.354 71.4582 80.3103 18.7535 104.154 69.5141 82.0446 49.8485 30.0459 -35.567 177.891 273.733 23.4998  48.633 24.4681 21.5885 21.3833 21.9515 20.6778 21.2639 14.9139
 76.5105 77.1843 -32.326 68.9298 109.546 145.746 209.359 190.996 59.9946 69.2951 13.0678 99.0493  59.316 75.0287 37.8632 18.9567  -35.26 183.247 276.243  29.448 52.1362 25.0074 21.4522 21.3381 21.9394 20.6448 21.2434 14.9139
 71.5702 70.9264 -30.496 67.2026 108.177 142.094 202.875  184.69 49.2931 58.8384 7.48673 93.9259 49.3125 68.2498 26.6503 8.52677 -34.943 188.222 278.119 35.9602 58.7953 25.4743 21.3375 21.2886 21.9266 20.6187 21.2121 14.9139
 66.5868 64.7286 -28.644 65.4317 106.968 138.569 196.979 178.474 39.4398 48.9843  2.0062 88.7496 39.5683 61.7363 16.2816 -1.0958 -34.617 192.798 279.388 42.9801 63.7617 25.8086 21.2519 21.2434 21.9081  20.603 21.1759 14.9139
 61.5584 58.6447 -26.751 63.6087 105.828 135.234 191.731 172.311 30.4811 39.7455 -3.3315 83.4633 30.2136 55.5142 6.76826 -9.8048  -34.26 196.951 280.006  51.743 63.9808 25.9779 21.2029 21.2106  21.879 20.5959 21.1419 14.9139
 56.5268 52.7139 -24.806 61.7319 104.594 132.086 187.019 166.111 22.4354 31.1141 -8.4514 77.9894 21.4169 49.5499 -1.9295 -17.557 -33.834 200.657 279.856 62.6387  59.987 25.9658 21.1936  21.193 21.8421 20.5927 21.1162  14.914
 51.5402 46.9394 -22.808  59.805 103.064 129.057 182.583 159.757 15.2954 23.0745 -13.275 72.2713 13.2962 43.7957 -9.8792  -24.37 -33.302  203.89 278.732 73.6185 54.1988 25.7815 21.2161 21.1884 21.8085 20.5916 21.1017  14.914
 46.6494 41.3073 -20.766 57.8368 101.044 126.041 178.055 153.121 9.03172 15.6077 -17.733   66.32 5.87665 38.2689 -17.156 -30.314 -32.645 206.616 276.364 81.8892 47.6471 25.4858 21.2558 21.1934 21.7886 20.5954 21.0958  14.914
 41.9235 35.8223 -18.698 55.8387 98.3854 122.942 173.064 146.098 3.61105 8.70021 -21.766 60.2115 -0.8493 33.0565 -23.829 -35.505 -31.852 208.814 272.498 86.9794 38.9308 25.1852 21.3011 21.2066 21.7839 20.6069 21.0932  14.914
 37.4261 30.5037 -16.631 53.8248 95.0274 119.731 167.368 138.671 -0.9687 2.38461 -25.329 54.0395 -6.8592 28.2779 -29.939 -40.057 -30.906 210.498 267.015 91.2925 26.7743 24.9835 21.3499 21.2257 21.7887 20.6227 21.0905  14.914
 33.1724 25.3499 -14.591 51.8176 91.0298 116.484 160.914  130.96 -4.6643  -3.217 -28.411 47.8833 -12.124 24.0772 -35.482 -44.012 -29.779 211.713 260.007 97.2049 12.8497 24.9327  21.404 21.2425 21.7995 20.6356 21.0865  14.914
 29.1342 20.3441 -12.605 49.8537 86.5633 113.384 153.815 123.209 -7.4312 -7.9047 -31.031 41.8391 -16.638 20.6147 -40.438  -47.32 -28.458 212.509 251.735 104.479 1.05341  25.025 21.4616  21.246 21.8169 20.6406 21.0807  14.914
 25.2721 15.4954 -10.709 47.9871 81.8506 110.656 146.261 115.715 -9.2785 -11.458 -33.232 36.0777 -20.396  17.996  -44.82 -49.887 -26.961   212.9 242.539 111.287 -6.3185 25.2222  21.518  21.233 21.8412 20.6383 21.0713  14.914
 21.5331 10.8379 -8.9623 46.2933 77.1037 108.507 138.454 108.742 -10.271 -13.695 -35.084 30.8429  -23.39 16.1962 -48.699 -51.657 -25.341 212.853 232.777 117.084 -10.789 25.4782 21.5709 21.2121 21.8675 20.6316 21.0572  14.914
 17.8331  6.3833 -7.4587 44.8752 72.4802 107.089 130.565 102.443 -10.502 -14.518 -36.689 26.3752  -25.66 15.0613 -52.215 -52.672 -23.664 212.315 222.787 123.267 -15.247 25.7344  21.624 21.1956 21.8876 20.6222 21.0385  14.914
 14.0398 2.05727 -6.3243 43.8636 68.0629 106.507 122.721 96.8544 -10.083 -13.934 -38.169 22.8272 -27.317 14.3415 -55.565 -53.102 -22.005 211.252 212.861 130.404 -20.054 25.9192 21.6848 21.1875 21.8976 20.6085 21.0157  14.914
 9.91837 -2.3569 -5.7138 43.4121 63.8511 106.851 114.998 91.9373 -9.1591  -12.04 -39.688 20.2326 -28.541 13.7254 -58.969 -53.203 -20.464 209.676 203.204  136.05 -22.879 25.9837 21.7542 21.1829 21.9037 20.5878 20.9914  14.914
 5.09247 -7.2417 -5.7977 43.6819 59.7577 108.203 107.398  87.604 -7.9571 -9.0454 -41.471 18.5103  -29.66 12.8924 -62.687 -53.314  -19.19 207.616  193.88 136.893 -22.366 25.9358 21.8212 21.1776 21.9154 20.5594 20.9712  14.914
